Data from sun_USB4F104151__1__13-22-45-762.txt Node

Date: Fri Mar 08 13:22:45 EST 2024
User: lauri
Spectrometer: USB4F10415
Trigger mode: 4
Integration Time (sec): 1,000000E-3
Scans to average: 1
Electric dark correction enabled: true
Nonlinearity correction enabled: false
Boxcar width: 0
XAxis mode: Wavelengths
Number of Pixels in Spectrum: 3648
>>>>>Begin Spectral Data<<<<<
178,204	-18,43
178,424	-18,43
178,644	-18,43
178,864	34,82
179,084	55,3
179,304	-49,15
179,524	-43,01
179,744	63,49
179,964	71,68
180,184	-10,24
180,404	30,72
180,624	8,19
180,844	-43,01
181,064	10,24
181,283	6,14
181,503	-51,2
181,723	6,14
181,943	10,24
182,163	51,2
182,383	47,1
182,602	47,1
182,822	49,15
183,042	34,82
183,262	18,43
183,482	-2,05
183,701	-8,19
183,921	6,14
184,141	53,25
184,361	88,06
184,58	34,82
184,8	34,82
185,02	38,91
185,239	-43,01
185,459	63,49
185,679	-22,53
185,898	36,86
186,118	26,62
186,338	-6,14
186,557	22,53
186,777	-34,82
186,997	-65,54
187,216	18,43
187,436	28,67
187,655	8,19
187,875	34,82
188,095	14,34
188,314	47,1
188,534	-45,06
188,753	-59,39
188,973	-6,14
189,192	38,91
189,412	57,34
189,631	14,34
189,851	26,62
190,07	51,2
190,29	-61,44
190,509	22,53
190,729	14,34
190,948	-22,53
191,168	34,82
191,387	10,24
191,607	83,97
191,826	14,34
192,045	49,15
192,265	59,39
192,484	38,91
192,704	24,58
192,923	-69,63
193,142	6,14
193,362	0
193,581	38,91
193,8	-45,06
194,02	55,3
194,239	6,14
194,458	14,34
194,678	139,26
194,897	16,38
195,116	6,14
195,335	6,14
195,555	0
195,774	14,34
195,993	-22,53
196,212	-6,14
196,432	-2,05
196,651	38,91
196,87	-16,38
197,089	30,72
197,308	-12,29
197,528	-2,05
197,747	55,3
197,966	-10,24
198,185	45,06
198,404	10,24
198,623	45,06
198,842	6,14
199,062	-6,14
199,281	47,1
199,5	-28,67
199,719	6,14
199,938	-108,54
200,157	22,53
200,376	6,14
200,595	-18,43
200,814	-10,24
201,033	77,82
201,252	-10,24
201,471	0
201,69	-34,82
201,909	14,34
202,128	-43,01
202,347	88,06
202,566	10,24
202,785	-53,25
203,004	47,1
203,223	-10,24
203,442	-40,96
203,661	36,86
203,879	2,05
204,098	-63,49
204,317	43,01
204,536	-36,86
204,755	43,01
204,974	-26,62
205,193	24,58
205,411	22,53
205,63	-26,62
205,849	-28,67
206,068	-2,05
206,287	-34,82
206,505	51,2
206,724	28,67
206,943	-20,48
207,162	-22,53
207,381	4,1
207,599	6,14
207,818	22,53
208,037	77,82
208,255	6,14
208,474	-8,19
208,693	12,29
208,911	-6,14
209,13	-67,58
209,349	22,53
209,567	-26,62
209,786	-2,05
210,005	-26,62
210,223	2,05
210,442	4,1
210,661	14,34
210,879	-10,24
211,098	-16,38
211,316	-83,97
211,535	67,58
211,753	-34,82
211,972	-59,39
212,191	28,67
212,409	4,1
212,628	-8,19
212,846	-10,24
213,065	-10,24
213,283	-59,39
213,502	94,21
213,72	69,63
213,938	10,24
214,157	6,14
214,375	-10,24
214,594	-38,91
214,812	-26,62
215,031	32,77
215,249	-14,34
215,467	-14,34
215,686	-12,29
215,904	43,01
216,122	-47,1
216,341	-6,14
216,559	69,63
216,778	-30,72
216,996	-12,29
217,214	-53,25
217,432	-10,24
217,651	10,24
217,869	22,53
218,087	28,67
218,306	4,1
218,524	10,24
218,742	-26,62
218,96	18,43
219,179	-20,48
219,397	28,67
219,615	-26,62
219,833	4,1
220,051	-10,24
220,27	45,06
220,488	-55,3
220,706	36,86
220,924	-47,1
221,142	-10,24
221,36	-34,82
221,578	22,53
221,796	-69,63
222,015	-77,82
222,233	-2,05
222,451	-47,1
222,669	-28,67
222,887	-34,82
223,105	53,25
223,323	-26,62
223,541	-47,1
223,759	43,01
223,977	-75,77
224,195	6,14
224,413	-34,82
224,631	-4,1
224,849	-10,24
225,067	57,34
225,285	-51,2
225,503	-32,77
225,721	18,43
225,939	67,58
226,157	-12,29
226,375	36,86
226,592	-2,05
226,81	-8,19
227,028	-28,67
227,246	-2,05
227,464	20,48
227,682	55,3
227,9	-14,34
228,117	2,05
228,335	55,3
228,553	34,82
228,771	-14,34
228,989	-92,16
229,206	34,82
229,424	-6,14
229,642	4,1
229,86	51,2
230,077	-12,29
230,295	-53,25
230,513	12,29
230,731	2,05
230,948	20,48
231,166	-38,91
231,384	-86,01
231,601	24,58
231,819	49,15
232,037	-43,01
232,254	53,25
232,472	34,82
232,689	-43,01
232,907	22,53
233,125	-12,29
233,342	-30,72
233,56	14,34
233,777	10,24
233,995	-26,62
234,213	65,54
234,43	-22,53
234,648	-43,01
234,865	-51,2
235,083	-47,1
235,3	36,86
235,518	0
235,735	18,43
235,953	-22,53
236,17	-43,01
236,388	30,72
236,605	59,39
236,822	-16,38
237,04	-30,72
237,257	-16,38
237,475	-2,05
237,692	-26,62
237,909	6,14
238,127	-67,58
238,344	-12,29
238,562	-2,05
238,779	4,1
238,996	-20,48
239,214	2,05
239,431	-34,82
239,648	-43,01
239,865	8,19
240,083	-83,97
240,3	6,14
240,517	-6,14
240,735	16,38
240,952	47,1
241,169	6,14
241,386	-6,14
241,603	-36,86
241,821	36,86
242,038	-75,77
242,255	4,1
242,472	-28,67
242,689	12,29
242,907	18,43
243,124	4,1
243,341	6,14
243,558	-34,82
243,775	-2,05
243,992	26,62
244,209	-22,53
244,426	-20,48
244,643	-77,82
244,86	18,43
245,078	-26,62
245,295	-49,15
245,512	10,24
245,729	55,3
245,946	-30,72
246,163	-55,3
246,38	-10,24
246,597	-40,96
246,814	10,24
247,031	43,01
247,248	-30,72
247,464	-2,05
247,681	-10,24
247,898	18,43
248,115	18,43
248,332	-14,34
248,549	-4,1
248,766	-2,05
248,983	71,68
249,2	4,1
249,417	-2,05
249,633	34,82
249,85	-34,82
250,067	-12,29
250,284	-59,39
250,501	-59,39
250,717	-4,1
250,934	-26,62
251,151	-6,14
251,368	-10,24
251,585	-43,01
251,801	0
252,018	45,06
252,235	63,49
252,451	28,67
252,668	-12,29
252,885	28,67
253,102	0
253,318	-18,43
253,535	-34,82
253,752	40,96
253,968	-38,91
254,185	12,29
254,401	26,62
254,618	-12,29
254,835	12,29
255,051	34,82
255,268	12,29
255,484	-77,82
255,701	20,48
255,917	-65,54
256,134	51,2
256,351	-20,48
256,567	22,53
256,784	-10,24
257	-10,24
257,217	0
257,433	10,24
257,65	2,05
257,866	-2,05
258,082	-22,53
258,299	-20,48
258,515	-36,86
258,732	32,77
258,948	-30,72
259,165	43,01
259,381	-28,67
259,597	-67,58
259,814	47,1
260,03	4,1
260,246	-26,62
260,463	-10,24
260,679	30,72
260,895	-26,62
261,112	4,1
261,328	6,14
261,544	63,49
261,761	-38,91
261,977	-6,14
262,193	-14,34
262,409	-73,73
262,626	34,82
262,842	47,1
263,058	12,29
263,274	51,2
263,49	18,43
263,707	14,34
263,923	30,72
264,139	18,43
264,355	20,48
264,571	71,68
264,787	18,43
265,004	55,3
265,22	-34,82
265,436	26,62
265,652	14,34
265,868	-4,1
266,084	-116,73
266,3	8,19
266,516	-34,82
266,732	-30,72
266,948	-100,35
267,164	6,14
267,38	-67,58
267,596	0
267,812	-30,72
268,028	69,63
268,244	-40,96
268,46	6,14
268,676	6,14
268,892	59,39
269,108	30,72
269,324	30,72
269,54	18,43
269,756	-26,62
269,972	-20,48
270,188	-30,72
270,403	-8,19
270,619	-12,29
270,835	-4,1
271,051	6,14
271,267	-36,86
271,483	45,06
271,698	38,91
271,914	-12,29
272,13	-45,06
272,346	-92,16
272,562	-34,82
272,777	-22,53
272,993	-2,05
273,209	-20,48
273,425	-4,1
273,64	49,15
273,856	-18,43
274,072	-59,39
274,287	-36,86
274,503	-34,82
274,719	2,05
274,934	-10,24
275,15	4,1
275,366	22,53
275,581	-4,1
275,797	108,54
276,012	22,53
276,228	4,1
276,444	49,15
276,659	28,67
276,875	-61,44
277,09	28,67
277,306	-59,39
277,521	4,1
277,737	-36,86
277,952	-18,43
278,168	-2,05
278,383	-14,34
278,599	14,34
278,814	-2,05
279,03	-75,77
279,245	22,53
279,461	-2,05
279,676	-22,53
279,892	18,43
280,107	-2,05
280,322	-43,01
280,538	126,97
280,753	24,58
280,969	-4,1
281,184	26,62
281,399	-28,67
281,615	-18,43
281,83	-10,24
282,045	-10,24
282,26	36,86
282,476	-71,68
282,691	20,48
282,906	22,53
283,122	-26,62
283,337	-30,72
283,552	12,29
283,767	16,38
283,983	-51,2
284,198	-24,58
284,413	-83,97
284,628	-20,48
284,843	14,34
285,058	-34,82
285,274	18,43
285,489	-51,2
285,704	-43,01
285,919	-83,97
286,134	22,53
286,349	-22,53
286,564	-28,67
286,779	12,29
286,995	-34,82
287,21	-75,77
287,425	-26,62
287,64	67,58
287,855	-8,19
288,07	-2,05
288,285	57,34
288,5	-49,15
288,715	4,1
288,93	-28,67
289,145	-49,15
289,36	-20,48
289,575	-20,48
289,79	-38,91
290,004	-26,62
290,219	-83,97
290,434	-26,62
290,649	-22,53
290,864	47,1
291,079	-40,96
291,294	-10,24
291,509	14,34
291,724	36,86
291,938	36,86
292,153	-2,05
292,368	-26,62
292,583	22,53
292,798	-10,24
293,012	2,05
293,227	43,01
293,442	-55,3
293,657	-6,14
293,871	-4,1
294,086	-10,24
294,301	-30,72
294,516	-10,24
294,73	32,77
294,945	-6,14
295,16	20,48
295,374	-2,05
295,589	-40,96
295,804	-38,91
296,018	-43,01
296,233	-2,05
296,447	47,1
296,662	26,62
296,877	-22,53
297,091	6,14
297,306	-18,43
297,52	-16,38
297,735	38,91
297,949	24,58
298,164	-69,63
298,378	34,82
298,593	-10,24
298,807	-22,53
299,022	26,62
299,236	14,34
299,451	38,91
299,665	-18,43
299,88	26,62
300,094	-67,58
300,309	16,38
300,523	-38,91
300,737	-14,34
300,952	-18,43
301,166	-34,82
301,381	-32,77
301,595	-45,06
301,809	18,43
302,024	2,05
302,238	-14,34
302,452	-14,34
302,667	-51,2
302,881	6,14
303,095	-34,82
303,309	-10,24
303,524	-36,86
303,738	14,34
303,952	-59,39
304,166	-20,48
304,381	-10,24
304,595	55,3
304,809	-26,62
305,023	-47,1
305,237	-38,91
305,452	-2,05
305,666	-36,86
305,88	-12,29
306,094	-28,67
306,308	-18,43
306,522	-67,58
306,736	47,1
306,95	-6,14
307,164	-2,05
307,379	14,34
307,593	-92,16
307,807	-20,48
308,021	-45,06
308,235	10,24
308,449	-77,82
308,663	22,53
308,877	22,53
309,091	-12,29
309,305	34,82
309,519	8,19
309,733	4,1
309,947	16,38
310,161	-22,53
310,374	-71,68
310,588	47,1
310,802	-18,43
311,016	2,05
311,23	-10,24
311,444	-47,1
311,658	-6,14
311,872	4,1
312,085	55,3
312,299	129,02
312,513	12,29
312,727	22,53
312,941	-28,67
313,154	75,77
313,368	-28,67
313,582	79,87
313,796	-12,29
314,009	-12,29
314,223	-22,53
314,437	36,86
314,651	51,2
314,864	4,1
315,078	40,96
315,292	59,39
315,505	-26,62
315,719	67,58
315,933	45,06
316,146	14,34
316,36	47,1
316,573	10,24
316,787	4,1
317,001	14,34
317,214	47,1
317,428	30,72
317,641	-2,05
317,855	18,43
318,068	-28,67
318,282	-38,91
318,495	110,59
318,709	92,16
318,922	59,39
319,136	14,34
319,349	4,1
319,563	43,01
319,776	61,44
319,99	59,39
320,203	38,91
320,417	104,45
320,63	126,97
320,843	-16,38
321,057	102,4
321,27	86,01
321,483	30,72
321,697	10,24
321,91	61,44
322,124	59,39
322,337	61,44
322,55	6,14
322,763	94,21
322,977	104,45
323,19	143,36
323,403	79,87
323,617	133,12
323,83	169,98
324,043	104,45
324,256	145,41
324,469	145,41
324,683	231,42
324,896	223,23
325,109	342,01
325,322	362,49
325,535	411,64
325,748	382,97
325,962	436,22
326,175	399,35
326,388	436,22
326,601	423,93
326,814	489,46
327,027	501,75
327,24	423,93
327,453	514,04
327,666	421,88
327,879	501,75
328,092	589,82
328,305	575,48
328,518	626,68
328,731	733,17
328,944	794,61
329,157	798,71
329,37	708,6
329,583	724,98
329,796	782,32
330,009	767,99
330,222	645,11
330,435	714,74
330,648	665,59
330,861	686,07
331,073	821,24
331,286	735,22
331,499	663,54
331,712	718,84
331,925	743,41
332,138	757,75
332,35	657,4
332,563	718,84
332,776	724,98
332,989	659,45
333,202	761,84
333,414	784,37
333,627	776,18
333,84	880,63
334,053	774,13
334,265	866,29
334,478	815,09
334,691	905,2
334,903	890,87
335,116	798,71
335,329	800,76
335,541	862,19
335,754	661,49
335,966	714,74
336,179	749,56
336,392	729,08
336,604	741,36
336,817	849,91
337,029	972,79
337,242	839,67
337,454	978,93
337,667	1015,79
337,88	1026,03
338,092	1230,83
338,305	1183,73
338,517	1279,98
338,729	1226,73
338,942	1329,13
339,154	1306,6
339,367	1443,82
339,579	1296,36
339,792	1439,72
340,004	1531,88
340,217	1572,84
340,429	1505,26
340,641	1435,63
340,854	1470,44
341,066	1349,61
341,278	1378,28
341,491	1538,02
341,703	1505,26
341,915	1685,48
342,128	1480,68
342,34	1679,33
342,552	1566,7
342,764	1431,53
342,977	1447,91
343,189	1288,17
343,401	1261,55
343,613	1241,07
343,826	1284,08
344,038	1423,34
344,25	1267,69
344,462	1415,15
344,674	1474,54
344,886	1669,09
345,099	1513,45
345,311	1650,66
345,523	1587,18
345,735	1759,21
345,947	1812,45
346,159	1710,05
346,371	1603,56
346,583	1857,51
346,795	1863,65
347,007	1824,74
347,219	1763,3
347,431	1710,05
347,643	1687,53
347,855	1677,29
348,067	1804,26
348,279	1939,43
348,491	1925,09
348,703	2133,98
348,915	2041,82
349,127	2127,84
349,339	2418,65
349,551	2381,79
349,763	2342,88
349,975	2547,67
350,187	2303,96
350,399	2705,37
350,61	2273,25
350,822	2471,9
351,034	2127,84
351,246	2326,49
351,458	2209,76
351,669	2445,27
351,881	2193,37
352,093	2451,42
352,305	2439,13
352,517	2553,82
352,728	2666,46
352,94	3106,77
353,152	2936,79
353,363	3114,96
353,575	3127,25
353,787	3305,42
353,999	3108,82
354,21	3352,52
354,422	3020,75
354,633	3205,07
354,845	2799,57
355,057	2994,13
355,268	2648,02
355,48	2807,77
355,692	2357,21
355,903	2414,56
356,115	2283,49
356,326	2244,57
356,538	2107,36
356,749	2070,5
356,961	1791,97
357,172	1990,63
357,384	1882,08
357,595	2004,96
357,807	2045,92
358,018	2258,91
358,23	2273,25
358,441	2594,78
358,653	2723,8
358,864	3100,62
359,075	2969,55
359,287	3280,85
359,498	3215,31
359,709	3368,91
359,921	3151,82
360,132	3100,62
360,344	3078,1
360,555	3217,36
360,766	3026,9
360,977	3186,64
361,189	3217,36
361,4	3385,29
361,611	3397,58
361,823	3655,62
362,034	3585,99
362,245	3749,83
362,456	3733,45
362,667	4014,02
362,879	4032,45
363,09	4061,12
363,301	4079,55
363,512	4173,76
363,723	4245,44
363,935	4435,9
364,146	4378,56
364,357	4843,45
364,568	4892,6
364,779	5160,88
364,99	5330,86
365,201	5304,24
365,412	5351,34
365,623	5666,73
365,834	5664,68
366,045	5670,83
366,256	5461,93
366,467	5453,74
366,678	5566,38
366,889	5586,86
367,1	5207,98
367,311	5515,18
367,522	5441,45
367,733	5515,18
367,944	5392,3
368,155	5599,15
368,366	5699,5
368,577	5754,79
368,788	5781,42
368,999	6141,86
369,209	5910,44
369,42	5906,34
369,631	5961,64
369,842	5738,41
370,053	5840,81
370,264	5695,4
370,474	5664,68
370,685	5867,43
370,896	5509,04
371,107	5543,85
371,317	5380,01
371,528	5173,17
371,739	5076,91
371,95	5294
372,16	4890,55
372,371	4683,7
372,582	4691,9
372,792	4517,82
373,003	4353,98
373,214	4634,55
373,424	4407,23
373,635	4433,85
373,846	4566,97
374,056	4880,31
374,267	4609,98
374,477	5052,34
374,688	5134,26
374,898	5347,25
375,109	5584,81
375,319	5879,72
375,53	5863,33
375,74	6092,71
375,951	6227,87
376,161	6408,09
376,372	6993,81
376,582	6858,65
376,793	7214,99
377,003	7454,61
377,214	7470,99
377,424	7722,89
377,635	7710,6
377,845	7423,89
378,055	7100,31
378,266	7245,71
378,476	6875,03
378,686	6694,81
378,897	6610,84
379,107	6645,66
379,317	6573,98
379,528	6825,88
379,738	6778,78
379,948	6832,02
380,158	6498,2
380,369	6680,47
380,579	6391,71
380,789	6025,12
380,999	5789,61
381,21	5197,74
381,42	4900,79
381,63	4972,47
381,84	4370,37
382,05	4085,7
382,261	3809,22
382,471	3717,06
382,681	3708,87
382,891	4208,58
383,101	4124,61
383,311	4560,83
383,521	4818,87
383,731	5068,72
383,941	5388,21
384,151	5732,26
384,361	5996,45
384,571	6041,51
384,781	5986,21
384,991	6145,95
385,201	5902,25
385,411	6250,4
385,621	5910,44
385,831	6236,06
386,041	6102,95
386,251	6145,95
386,461	5998,5
386,671	6244,26
386,881	6254,5
387,091	6078,37
387,301	6057,89
387,511	6391,71
387,72	6277,02
387,93	6336,42
388,14	6612,89
388,35	7059,35
388,56	7223,19
388,769	7296,91
388,979	7839,62
389,189	8075,14
389,399	8290,18
389,609	8456,06
389,818	8613,76
390,028	8697,72
390,238	8828,79
390,447	8902,52
390,657	8533,89
390,867	8673,15
391,076	7843,72
391,286	7575,44
391,496	6805,4
391,705	6666,14
391,915	5648,3
392,125	5347,25
392,334	4730,81
392,544	4519,87
392,753	4091,84
392,963	4689,85
393,172	4687,8
393,382	5306,29
393,591	5676,97
393,801	6698,91
394,01	6567,84
394,22	7475,09
394,429	8075,14
394,639	7866,25
394,848	7432,08
395,058	7542,67
395,267	7167,89
395,477	6465,44
395,686	6506,4
395,895	6264,74
396,105	5801,9
396,314	5795,75
396,524	5992,36
396,733	6625,18
396,942	7296,91
397,152	8572,8
397,361	8937,34
397,57	9488,24
397,78	10229,6
397,989	10794,84
398,198	11806,54
398,407	11851,6
398,617	11874,12
398,826	12580,67
399,035	12011,34
399,244	12261,19
399,453	12220,23
399,663	13063,99
399,872	12889,92
400,081	13403,96
400,29	12846,91
400,499	13479,73
400,708	12994,36
400,917	13958,95
401,127	13356,85
401,336	13629,23
401,545	13266,74
401,754	13668,14
401,963	13834,03
402,172	13592,37
402,381	13107
402,59	13645,62
402,799	13195,06
403,008	13281,08
403,217	13088,57
403,426	13596,46
403,635	13174,58
403,844	13508,4
404,053	13500,21
404,262	13352,76
404,471	13176,63
404,68	13365,04
404,888	12742,46
405,097	12973,88
405,306	13041,47
405,515	13127,48
405,724	12826,43
405,933	13248,31
406,142	12943,16
406,35	12826,43
406,559	13653,81
406,768	13774,64
406,977	13365,04
407,185	14329,64
407,394	13690,67
407,603	14122,79
407,812	14182,18
408,02	14690,08
408,229	14348,07
408,438	14233,38
408,646	14294,82
408,855	13864,75
409,064	13686,58
409,272	13666,1
409,481	13838,12
409,69	13963,05
409,898	13643,57
410,107	14233,38
410,315	13860,65
410,524	14929,69
410,733	14534,43
410,941	15114,01
411,15	14989,08
411,358	15533,84
411,567	15365,91
411,775	15521,56
411,984	14911,26
412,192	15437,59
412,401	14860,06
412,609	15423,25
412,818	15386,39
413,026	15363,86
413,234	15218,46
413,443	15568,66
413,651	15157,02
413,86	15542,03
414,068	15093,53
414,276	15308,57
414,485	15144,73
414,693	14876,44
414,901	15200,02
415,11	15949,58
415,318	15091,48
415,526	15914,77
415,734	15273,75
415,943	15902,48
416,151	15183,64
416,359	15075,1
416,567	14765,85
416,776	14847,77
416,984	14786,33
417,192	15093,53
417,4	14552,87
417,608	14524,19
417,817	14524,19
418,025	14649,12
418,233	14784,29
418,441	14604,07
418,649	14741,28
418,857	15236,89
419,065	14636,83
419,273	14432,04
419,481	14518,05
419,689	15490,84
419,897	15701,78
420,105	15628,05
420,313	15396,63
420,521	15333,14
420,729	14888,73
420,937	15527,7
421,145	15044,38
421,353	15222,55
421,561	15001,37
421,769	14962,46
421,977	14984,99
422,185	14307,11
422,393	14774,05
422,601	15308,57
422,809	14612,26
423,017	14628,64
423,224	14567,2
423,432	15114,01
423,64	14622,5
423,848	15361,81
424,056	14728,99
424,263	15505,17
424,471	14808,86
424,679	14841,63
424,887	14991,13
425,094	15318,81
425,302	14755,61
425,51	14987,04
425,718	14511,91
425,925	14808,86
426,133	14634,78
426,341	15109,91
426,548	15126,3
426,756	14907,16
426,964	14593,83
427,171	15126,3
427,379	14982,94
427,586	14939,93
427,794	14671,65
428,001	15087,39
428,209	14886,68
428,417	14106,41
428,624	14223,14
428,832	13340,47
429,039	12629,82
429,247	11958,09
429,454	12029,77
429,662	12724,03
429,869	11552,59
430,076	12166,98
430,284	11763,53
430,491	12795,71
430,699	13952,81
430,906	14102,31
431,114	14610,21
431,321	15277,85
431,528	15628,05
431,736	16492,29
431,943	17125,11
432,15	16127,75
432,358	15740,69
432,565	16529,16
432,772	15746,83
432,979	16482,05
433,187	16203,53
433,394	15836,94
433,601	16516,87
433,808	16455,43
434,016	16017,16
434,223	16875,26
434,43	18044,65
434,637	17452,79
434,844	18482,92
435,052	18679,52
435,259	18280,17
435,466	18378,47
435,673	18384,62
435,88	19146,46
436,087	19375,83
436,294	19031,77
436,501	17848,05
436,708	17825,52
436,915	17909,49
437,122	17966,83
437,329	17272,57
437,537	17503,99
437,743	17297,14
437,95	16854,78
438,157	17256,18
438,364	17811,18
438,571	17944,3
438,778	17719,03
438,985	18824,93
439,192	18454,25
439,399	18560,74
439,606	18134,76
439,813	19058,4
440,02	19838,67
440,227	19240,67
440,433	19103,45
440,64	19377,88
440,847	19427,03
441,054	19517,14
441,261	20786,88
441,467	20135,63
441,674	20367,05
441,881	20649,67
442,088	20899,52
442,294	20070,09
442,501	20276,94
442,708	20293,32
442,914	20868,8
443,121	21448,38
443,328	20473,54
443,534	21395,13
443,741	20606,66
443,948	19814,1
444,154	21087,93
444,361	20287,18
444,568	20016,85
444,774	19093,21
444,981	19255
445,187	19207,9
445,394	19893,97
445,6	19361,5
445,807	21262,01
446,013	20084,43
446,22	20332,23
446,426	21008,06
446,633	21165,76
446,839	21491,38
447,046	20772,55
447,252	21898,93
447,459	21659,32
447,665	20838,08
447,871	21513,91
448,078	21913,27
448,284	20766,4
448,491	21358,27
448,697	22019,76
448,903	22011,57
449,11	22423,21
449,316	22075,06
449,522	22298,28
449,728	22787,75
449,935	22910,63
450,141	22656,68
450,347	23289,5
450,553	22292,14
450,76	22183,6
450,966	22531,75
451,172	22386,35
451,378	22353,58
451,584	21935,79
451,791	21575,35
451,997	21106,37
452,203	21632,69
452,409	21452,47
452,615	21563,06
452,821	20694,72
453,027	20639,43
453,233	22181,55
453,44	21391,03
453,646	21761,72
453,852	21759,67
454,058	22550,18
454,264	21579,45
454,47	22554,28
454,676	21974,7
454,882	23271,07
455,088	21497,53
455,294	22511,27
455,5	22892,19
