Data from USB4F104151__0__13-21-03-950.txt Node

Date: Fri Mar 08 13:21:03 EST 2024
User: lauri
Spectrometer: USB4F10415
Trigger mode: 4
Integration Time (sec): 5,000000E-4
Scans to average: 1
Electric dark correction enabled: true
Nonlinearity correction enabled: false
Boxcar width: 0
XAxis mode: Wavelengths
Number of Pixels in Spectrum: 3648
>>>>>Begin Spectral Data<<<<<
178,204	53,42
178,424	53,42
178,644	53,42
178,864	-44,88
179,084	26,79
179,304	77,99
179,524	-77,65
179,744	-3,93
179,964	32,94
180,184	-34,64
180,404	-51,03
180,624	-14,17
180,844	-3,93
181,064	24,75
181,283	0,17
181,503	20,65
181,723	28,84
181,943	-3,93
182,163	45,23
182,383	4,27
182,602	43,18
182,822	12,46
183,042	34,99
183,262	16,55
183,482	28,84
183,701	14,51
183,921	0,17
184,141	37,03
184,361	57,51
184,58	-12,12
184,8	106,67
185,02	28,84
185,239	18,6
185,459	4,27
185,679	32,94
185,898	65,71
186,118	45,23
186,338	-36,69
186,557	-16,21
186,777	82,09
186,997	116,9
187,216	8,36
187,436	4,27
187,655	39,08
187,875	69,8
188,095	12,46
188,314	-53,08
188,534	14,51
188,753	34,99
188,973	-3,93
189,192	-36,69
189,412	12,46
189,631	53,42
189,851	26,79
190,07	24,75
190,29	18,6
190,509	-20,31
190,729	53,42
190,948	43,18
191,168	45,23
191,387	8,36
191,607	4,27
191,826	-53,08
192,045	-34,64
192,265	10,41
192,484	-28,5
192,704	57,51
192,923	32,94
193,142	28,84
193,362	-5,97
193,581	63,66
193,8	2,22
194,02	-18,26
194,239	28,84
194,458	45,23
194,678	-32,6
194,897	4,27
195,116	-24,4
195,335	4,27
195,555	49,32
195,774	-14,17
195,993	69,8
196,212	69,8
196,432	-8,02
196,651	32,94
196,87	26,79
197,089	4,27
197,308	28,84
197,528	57,51
197,747	32,94
197,966	65,71
198,185	-24,4
198,404	12,46
198,623	37,03
198,842	24,75
199,062	100,52
199,281	-5,97
199,5	-3,93
199,719	-46,93
199,938	28,84
200,157	41,13
200,376	-38,74
200,595	69,8
200,814	8,36
201,033	-32,6
201,252	73,9
201,471	45,23
201,69	34,99
201,909	-24,4
202,128	-38,74
202,347	53,42
202,566	-32,6
202,785	20,65
203,004	20,65
203,223	0,17
203,442	67,75
203,661	-3,93
203,879	26,79
204,098	41,13
204,317	-61,27
204,536	4,27
204,755	-10,07
204,974	69,8
205,193	10,41
205,411	26,79
205,63	-16,21
205,849	61,61
206,068	-36,69
206,287	61,61
206,505	34,99
206,724	18,6
206,943	49,32
207,162	59,56
207,381	-59,22
207,599	73,9
207,818	6,31
208,037	53,42
208,255	43,18
208,474	12,46
208,693	-46,93
208,911	16,55
209,13	-16,21
209,349	-36,69
209,567	-14,17
209,786	18,6
210,005	26,79
210,223	96,43
210,442	10,41
210,661	43,18
210,879	-44,88
211,098	-3,93
211,316	41,13
211,535	43,18
211,753	49,32
211,972	45,23
212,191	53,42
212,409	-24,4
212,628	53,42
212,846	4,27
213,065	77,99
213,283	-3,93
213,502	8,36
213,72	32,94
213,938	-1,88
214,157	45,23
214,375	-40,79
214,594	77,99
214,812	16,55
215,031	-20,31
215,249	8,36
215,467	-22,36
215,686	-3,93
215,904	63,66
216,122	61,61
216,341	20,65
216,559	84,14
216,778	88,23
216,996	14,51
217,214	24,75
217,432	32,94
217,651	10,41
217,869	26,79
218,087	47,27
218,306	28,84
218,524	53,42
218,742	61,61
218,96	16,55
219,179	37,03
219,397	18,6
219,615	59,56
219,833	41,13
220,051	-28,5
220,27	16,55
220,488	-22,36
220,706	61,61
220,924	28,84
221,142	-14,17
221,36	18,6
221,578	-36,69
221,796	73,9
222,015	-3,93
222,233	-32,6
222,451	57,51
222,669	-46,93
222,887	4,27
223,105	-34,64
223,323	-10,07
223,541	-85,84
223,759	0,17
223,977	8,36
224,195	43,18
224,413	-12,12
224,631	32,94
224,849	0,17
225,067	26,79
225,285	-53,08
225,503	61,61
225,721	-3,93
225,939	123,05
226,157	-3,93
226,375	8,36
226,592	0,17
226,81	10,41
227,028	-36,69
227,246	20,65
227,464	34,99
227,682	22,7
227,9	-38,74
228,117	57,51
228,335	-77,65
228,553	20,65
228,771	12,46
228,989	49,32
229,206	84,14
229,424	-73,56
229,642	0,17
229,86	-12,12
230,077	-20,31
230,295	-20,31
230,513	28,84
230,731	51,37
230,948	12,46
231,166	90,28
231,384	22,7
231,601	2,22
231,819	18,6
232,037	26,79
232,254	61,61
232,472	-77,65
232,689	37,03
232,907	47,27
233,125	8,36
233,342	-8,02
233,56	20,65
233,777	45,23
233,995	18,6
234,213	16,55
234,43	-5,97
234,648	65,71
234,865	82,09
235,083	-28,5
235,3	-5,97
235,518	73,9
235,735	28,84
235,953	34,99
236,17	59,56
236,388	12,46
236,605	61,61
236,822	30,89
237,04	45,23
237,257	55,47
237,475	45,23
237,692	-12,12
237,909	-48,98
238,127	-8,02
238,344	4,27
238,562	-26,45
238,779	-44,88
238,996	26,79
239,214	-8,02
239,431	-44,88
239,648	4,27
239,865	-36,69
240,083	55,47
240,3	-12,12
240,517	-22,36
240,735	-28,5
240,952	-8,02
241,169	53,42
241,386	12,46
241,603	8,36
241,821	16,55
242,038	-32,6
242,255	41,13
242,472	20,65
242,689	69,8
242,907	-8,02
243,124	22,7
243,341	-32,6
243,558	77,99
243,775	18,6
243,992	69,8
244,209	14,51
244,426	-28,5
244,643	10,41
244,86	37,03
245,078	24,75
245,295	37,03
245,512	32,94
245,729	8,36
245,946	-20,31
246,163	-3,93
246,38	73,9
246,597	73,9
246,814	32,94
247,031	-42,84
247,248	4,27
247,464	16,55
247,681	20,65
247,898	2,22
248,115	57,51
248,332	24,75
248,549	92,33
248,766	71,85
248,983	24,75
249,2	28,84
249,417	61,61
249,633	43,18
249,85	4,27
250,067	22,7
250,284	71,85
250,501	28,84
250,717	-22,36
250,934	32,94
251,151	-28,5
251,368	14,51
251,585	51,37
251,801	20,65
252,018	53,42
252,235	16,55
252,451	0,17
252,668	-12,12
252,885	77,99
253,102	12,46
253,318	61,61
253,535	-44,88
253,752	4,27
253,968	-63,32
254,185	45,23
254,401	59,56
254,618	14,51
254,835	16,55
255,051	22,7
255,268	28,84
255,484	43,18
255,701	-3,93
255,917	32,94
256,134	45,23
256,351	-30,55
256,567	-16,21
256,784	16,55
257	100,52
257,217	-16,21
257,433	-5,97
257,65	28,84
257,866	20,65
258,082	59,56
258,299	51,37
258,515	61,61
258,732	-3,93
258,948	28,84
259,165	73,9
259,381	22,7
259,597	4,27
259,814	26,79
260,03	-46,93
260,246	20,65
260,463	-20,31
260,679	28,84
260,895	-16,21
261,112	-26,45
261,328	-3,93
261,544	-10,07
261,761	67,75
261,977	24,75
262,193	-22,36
262,409	-22,36
262,626	-30,55
262,842	94,38
263,058	-55,12
263,274	37,03
263,49	4,27
263,707	-20,31
263,923	84,14
264,139	24,75
264,355	10,41
264,571	51,37
264,787	49,32
265,004	-65,36
265,22	2,22
265,436	20,65
265,652	12,46
265,868	-28,5
266,084	-5,97
266,3	4,27
266,516	-65,36
266,732	51,37
266,948	16,55
267,164	30,89
267,38	67,75
267,596	22,7
267,812	-14,17
268,028	22,7
268,244	-32,6
268,46	24,75
268,676	30,89
268,892	86,19
269,108	61,61
269,324	4,27
269,54	8,36
269,756	14,51
269,972	-44,88
270,188	41,13
270,403	-36,69
270,619	18,6
270,835	-28,5
271,051	-79,7
271,267	-12,12
271,483	-5,97
271,698	61,61
271,914	16,55
272,13	-12,12
272,346	20,65
272,562	34,99
272,777	24,75
272,993	-26,45
273,209	59,56
273,425	-36,69
273,64	18,6
273,856	98,47
274,072	2,22
274,287	-10,07
274,503	-14,17
274,719	106,67
274,934	10,41
275,15	-44,88
275,366	4,27
275,581	-28,5
275,797	61,61
276,012	2,22
276,228	-12,12
276,444	24,75
276,659	34,99
276,875	-28,5
277,09	-32,6
277,306	41,13
277,521	45,23
277,737	39,08
277,952	0,17
278,168	61,61
278,383	102,57
278,599	-12,12
278,814	59,56
279,03	37,03
279,245	37,03
279,461	84,14
279,676	-38,74
279,892	14,51
280,107	24,75
280,322	-3,93
280,538	8,36
280,753	77,99
280,969	26,79
281,184	14,51
281,399	14,51
281,615	86,19
281,83	-1,88
282,045	-46,93
282,26	-38,74
282,476	-53,08
282,691	26,79
282,906	61,61
283,122	30,89
283,337	-44,88
283,552	-3,93
283,767	-16,21
283,983	4,27
284,198	26,79
284,413	28,84
284,628	-28,5
284,843	75,95
285,058	-5,97
285,274	8,36
285,489	-22,36
285,704	18,6
285,919	37,03
286,134	0,17
286,349	4,27
286,564	57,51
286,779	2,22
286,995	45,23
287,21	12,46
287,425	32,94
287,64	61,61
287,855	61,61
288,07	37,03
288,285	8,36
288,5	100,52
288,715	-5,97
288,93	32,94
289,145	0,17
289,36	28,84
289,575	20,65
289,79	16,55
290,004	-3,93
290,219	10,41
290,434	-3,93
290,649	32,94
290,864	53,42
291,079	51,37
291,294	12,46
291,509	45,23
291,724	12,46
291,938	49,32
292,153	102,57
292,368	28,84
292,583	69,8
292,798	-16,21
293,012	-32,6
293,227	18,6
293,442	45,23
293,657	55,47
293,871	4,27
294,086	16,55
294,301	53,42
294,516	8,36
294,73	26,79
294,945	24,75
295,16	-8,02
295,374	73,9
295,589	16,55
295,804	73,9
296,018	-12,12
296,233	4,27
296,447	-16,21
296,662	10,41
296,877	10,41
297,091	16,55
297,306	43,18
297,52	-16,21
297,735	-3,93
297,949	-48,98
298,164	-14,17
298,378	10,41
298,593	41,13
298,807	4,27
299,022	67,75
299,236	0,17
299,451	53,42
299,665	37,03
299,88	-8,02
300,094	69,8
300,309	12,46
300,523	28,84
300,737	20,65
300,952	47,27
301,166	-34,64
301,381	47,27
301,595	86,19
301,809	-20,31
302,024	51,37
302,238	84,14
302,452	-1,88
302,667	37,03
302,881	90,28
303,095	28,84
303,309	12,46
303,524	-3,93
303,738	61,61
303,952	4,27
304,166	94,38
304,381	-30,55
304,595	-22,36
304,809	34,99
305,023	75,95
305,237	-28,5
305,452	51,37
305,666	-96,08
305,88	-30,55
306,094	37,03
306,308	20,65
306,522	0,17
306,736	47,27
306,95	0,17
307,164	26,79
307,379	14,51
307,593	-24,4
307,807	6,31
308,021	73,9
308,235	-53,08
308,449	14,51
308,663	20,65
308,877	-36,69
309,091	-30,55
309,305	63,66
309,519	53,42
309,733	61,61
309,947	45,23
310,161	-44,88
310,374	32,94
310,588	10,41
310,802	4,27
311,016	55,47
311,23	94,38
311,444	28,84
311,658	-96,08
311,872	34,99
312,085	-8,02
312,299	26,79
312,513	37,03
312,727	37,03
312,941	45,23
313,154	45,23
313,368	10,41
313,582	8,36
313,796	22,7
314,009	65,71
314,223	26,79
314,437	98,47
314,651	45,23
314,864	67,75
315,078	-34,64
315,292	18,6
315,505	-5,97
315,719	55,47
315,933	-20,31
316,146	41,13
316,36	8,36
316,573	-10,07
316,787	2,22
317,001	32,94
317,214	20,65
317,428	57,51
317,641	28,84
317,855	14,51
318,068	22,7
318,282	28,84
318,495	77,99
318,709	4,27
318,922	4,27
319,136	4,27
319,349	26,79
319,563	26,79
319,776	-30,55
319,99	67,75
320,203	0,17
320,417	41,13
320,63	-12,12
320,843	86,19
321,057	22,7
321,27	18,6
321,483	-55,12
321,697	43,18
321,91	-30,55
322,124	12,46
322,337	-16,21
322,55	61,61
322,763	65,71
322,977	82,09
323,19	57,51
323,403	86,19
323,617	24,75
323,83	24,75
324,043	39,08
324,256	-1,88
324,469	45,23
324,683	102,57
324,896	73,9
325,109	45,23
325,322	71,85
325,535	98,47
325,748	18,6
325,962	45,23
326,175	20,65
326,388	102,57
326,601	12,46
326,814	45,23
327,027	80,04
327,24	112,81
327,453	37,03
327,666	77,99
327,879	16,55
328,092	16,55
328,305	100,52
328,518	131,24
328,731	53,42
328,944	84,14
329,157	51,37
329,37	127,14
329,583	80,04
329,796	75,95
330,009	86,19
330,222	65,71
330,435	149,67
330,648	75,95
330,861	100,52
331,073	110,76
331,286	51,37
331,499	86,19
331,712	-20,31
331,925	77,99
332,138	39,08
332,35	75,95
332,563	59,56
332,776	37,03
332,989	37,03
333,202	37,03
333,414	67,75
333,627	100,52
333,84	12,46
334,053	116,9
334,265	102,57
334,478	77,99
334,691	121
334,903	127,14
335,116	94,38
335,329	84,14
335,541	84,14
335,754	125,1
335,966	8,36
336,179	84,14
336,392	106,67
336,604	94,38
336,817	104,62
337,029	123,05
337,242	110,76
337,454	159,91
337,667	75,95
337,88	108,71
338,092	215,21
338,305	168,1
338,517	143,53
338,729	102,57
338,942	213,16
339,154	102,57
339,367	174,25
339,579	102,57
339,792	110,76
340,004	139,43
340,217	127,14
340,429	137,38
340,641	69,8
340,854	196,78
341,066	75,95
341,278	118,95
341,491	174,25
341,703	131,24
341,915	192,68
342,128	215,21
342,34	114,86
342,552	133,29
342,764	114,86
342,977	104,62
343,189	96,43
343,401	92,33
343,613	143,53
343,826	159,91
344,038	133,29
344,25	100,52
344,462	143,53
344,674	112,81
344,886	149,67
345,099	114,86
345,311	159,91
345,523	114,86
345,735	176,3
345,947	129,19
346,159	125,1
346,371	235,69
346,583	141,48
346,795	110,76
347,007	125,1
347,219	149,67
347,431	90,28
347,643	202,92
347,855	180,39
348,067	116,9
348,279	241,83
348,491	164,01
348,703	186,54
348,915	114,86
349,127	151,72
349,339	231,59
349,551	233,64
349,763	241,83
349,975	200,87
350,187	266,41
350,399	250,02
350,61	241,83
350,822	200,87
351,034	164,01
351,246	184,49
351,458	188,58
351,669	198,82
351,881	186,54
352,093	229,54
352,305	221,35
352,517	211,11
352,728	307,37
352,94	217,26
353,152	348,33
353,363	266,41
353,575	282,79
353,787	338,09
353,999	348,33
354,21	348,33
354,422	250,02
354,633	235,69
354,845	223,4
355,057	221,35
355,268	270,5
355,48	217,26
355,692	272,55
355,903	172,2
356,115	166,06
356,326	143,53
356,538	172,2
356,749	127,14
356,961	196,78
357,172	118,95
357,384	217,26
357,595	204,97
357,807	151,72
358,018	180,39
358,23	231,59
358,441	227,5
358,653	252,07
358,864	331,94
359,075	262,31
359,287	301,22
359,498	338,09
359,709	282,79
359,921	266,41
360,132	247,97
360,344	299,17
360,555	311,46
360,766	258,21
360,977	237,74
361,189	342,18
361,4	258,21
361,611	331,94
361,823	352,42
362,034	377
362,245	387,24
362,456	340,13
362,667	346,28
362,879	473,25
363,09	501,92
363,301	477,35
363,512	393,38
363,723	508,07
363,935	454,82
364,146	512,16
364,357	544,93
364,568	657,57
364,779	606,37
364,99	577,7
365,201	710,82
365,412	659,62
365,623	774,3
365,834	860,32
366,045	843,93
366,256	649,38
366,467	839,84
366,678	694,43
366,889	712,86
367,1	626,85
367,311	788,64
367,522	766,11
367,733	676
367,944	745,63
368,155	733,34
368,366	786,59
368,577	864,41
368,788	796,83
368,999	770,21
369,209	776,35
369,42	827,55
369,631	757,92
369,842	794,78
370,053	747,68
370,264	686,24
370,474	692,38
370,685	848,03
370,896	690,34
371,107	723,1
371,317	649,38
371,528	575,65
371,739	684,19
371,95	585,89
372,16	614,56
372,371	542,88
372,582	493,73
372,792	485,54
373,003	417,96
373,214	452,77
373,424	430,24
373,635	403,62
373,846	577,7
374,056	534,69
374,267	551,07
374,477	579,75
374,688	600,23
374,898	714,91
375,109	739,49
375,319	811,17
375,53	817,31
375,74	882,85
375,951	807,07
376,161	972,96
376,372	1003,68
376,582	1018,01
376,793	1110,17
377,003	1233,05
377,214	1325,21
377,424	1179,8
377,635	1280,15
377,845	1114,27
378,055	1110,17
378,266	1134,75
378,476	942,24
378,686	942,24
378,897	999,58
379,107	1048,73
379,317	968,86
379,528	1046,68
379,738	1065,11
379,948	954,52
380,158	864,41
380,369	911,52
380,579	805,02
380,789	901,28
380,999	829,6
381,21	653,47
381,42	532,64
381,63	520,35
381,84	438,44
382,05	430,24
382,261	290,98
382,471	446,63
382,681	325,8
382,891	458,92
383,101	405,67
383,311	479,4
383,521	551,07
383,731	594,08
383,941	655,52
384,151	741,54
384,361	782,49
384,571	870,56
384,781	774,3
384,991	936,09
385,201	690,34
385,411	899,23
385,621	794,78
385,831	848,03
386,041	829,6
386,251	839,84
386,461	800,93
386,671	946,33
386,881	880,8
387,091	872,61
387,301	843,93
387,511	954,52
387,72	878,75
387,93	975
388,14	981,15
388,35	1116,31
388,56	1142,94
388,769	1204,38
388,979	1241,24
389,189	1433,75
389,399	1341,59
389,609	1458,32
389,818	1429,65
390,028	1573,01
390,238	1589,39
390,447	1724,56
390,657	1474,71
390,867	1515,67
391,076	1216,66
391,286	1267,86
391,496	1034,39
391,705	958,62
391,915	739,49
392,125	745,63
392,334	518,31
392,544	420
392,753	454,82
392,963	610,47
393,172	528,55
393,382	757,92
393,591	829,6
393,801	970,91
394,01	979,1
394,22	1101,98
394,429	1241,24
394,639	1331,35
394,848	1282,2
395,058	1233,05
395,267	1083,55
395,477	981,15
395,686	899,23
395,895	811,17
396,105	731,3
396,314	815,26
396,524	815,26
396,733	1003,68
396,942	1183,9
397,152	1634,45
397,361	1697,94
397,57	2003,08
397,78	2044,04
397,989	2263,18
398,198	2541,7
398,407	2678,91
398,617	2551,94
398,826	2977,92
399,035	2691,2
399,244	2785,41
399,453	2728,07
399,663	2969,73
399,872	2887,81
400,081	3227,77
400,29	3035,26
400,499	3119,23
400,708	2949,25
400,917	3358,84
401,127	3147,9
401,336	3213,43
401,545	3186,81
401,754	3203,19
401,963	3422,33
402,172	3289,21
402,381	3225,72
402,59	3371,13
402,799	3074,17
403,008	3131,51
403,217	3008,64
403,426	3192,95
403,635	3117,18
403,844	3123,32
404,053	3022,97
404,262	3182,71
404,471	3059,84
404,68	3281,02
404,888	3008,64
405,097	3008,64
405,306	2975,87
405,515	3072,12
405,724	2996,35
405,933	3317,88
406,142	3104,89
406,35	2873,47
406,559	3195
406,768	3326,07
406,977	3147,9
407,185	3412,09
407,394	3436,66
407,603	3438,71
407,812	3393,65
408,02	3485,81
408,229	3369,08
408,438	3338,36
408,646	3407,99
408,855	3387,51
409,064	3272,82
409,272	3448,95
409,481	3326,07
409,69	3248,25
409,898	3117,18
410,107	3745,91
410,315	3444,85
410,524	3758,19
410,733	3639,41
410,941	3879,02
411,15	3727,47
411,358	4042,86
411,567	3833,97
411,775	3917,93
411,984	3829,87
412,192	3969,13
412,401	3819,63
412,609	3852,4
412,818	3803,25
413,026	4010,09
413,234	3739,76
413,443	3876,98
413,651	3813,49
413,86	3760,24
414,068	3836,02
414,276	3944,56
414,485	3836,02
414,693	3975,28
414,901	3821,68
415,11	4157,55
415,318	3760,24
415,526	3981,42
415,734	3756,15
415,943	3960,94
416,151	3760,24
416,359	3772,53
416,567	3680,37
416,776	3678,32
416,984	3592,31
417,192	3813,49
417,4	3682,42
417,608	3633,27
417,817	3590,26
418,025	3530,87
418,233	3711,09
418,441	3553,4
418,649	3647,6
418,857	3962,99
419,065	3721,33
419,273	3559,54
419,481	3530,87
419,689	4010,09
419,897	3879,02
420,105	4194,41
420,313	3887,22
420,521	3979,37
420,729	3762,29
420,937	4141,16
421,145	3809,39
421,353	3788,91
421,561	3727,47
421,769	3870,83
421,977	3772,53
422,185	3534,96
422,393	3706,99
422,601	3962,99
422,809	3645,56
423,017	3760,24
423,224	3582,07
423,432	3782,77
423,64	3666,03
423,848	4018,29
424,056	3584,12
424,263	3825,78
424,471	3735,67
424,679	3704,95
424,887	3676,27
425,094	3872,88
425,302	3575,92
425,51	3854,45
425,718	3547,25
425,925	3786,86
426,133	3559,54
426,341	3854,45
426,548	3666,03
426,756	3647,6
426,964	3575,92
427,171	3870,83
427,379	3629,17
427,586	3793,01
427,794	3528,82
428,001	3821,68
428,209	3592,31
428,417	3342,46
428,624	3381,37
428,832	3268,73
429,039	2873,47
429,247	2547,84
429,454	2500,74
429,662	2846,85
429,869	2461,83
430,076	2809,98
430,284	2699,39
430,491	2904,19
430,699	3385,46
430,906	3608,69
431,114	3440,76
431,321	3969,13
431,528	3868,78
431,736	4331,62
431,943	4335,72
432,15	4237,42
432,358	4180,07
432,565	4321,38
432,772	4046,96
432,979	4305
433,187	4188,27
433,394	4057,2
433,601	4360,3
433,808	4477,03
434,016	4069,48
434,223	4696,16
434,43	4657,25
434,637	4743,27
434,844	4911,2
435,052	5136,48
435,259	4964,45
435,466	5023,84
435,673	4857,95
435,88	5107,8
436,087	5204,06
436,294	5259,35
436,501	4806,75
436,708	4788,32
436,915	4515,94
437,122	4767,84
437,329	4399,21
437,537	4636,77
437,743	4403,3
437,95	4477,03
438,157	4505,7
438,364	4884,58
438,571	4677,73
438,778	4833,38
438,985	5060,7
439,192	4995,17
439,399	4966,49
439,606	4778,08
439,813	5064,8
440,02	5466,2
440,227	5277,79
440,433	5245,02
440,64	5408,86
440,847	5226,59
441,054	5449,82
441,261	5605,46
441,467	5472,34
441,674	5642,32
441,881	5714
442,088	5656,66
442,294	5460,06
442,501	5791,83
442,708	5410,9
442,914	5922,9
443,121	5918,8
443,328	5550,17
443,534	6256,72
443,741	5818,45
443,948	5451,86
444,154	5922,9
444,361	5431,38
444,568	5603,41
444,774	5228,63
444,981	5222,49
445,187	5238,87
445,394	5517,4
445,6	5210,2
445,807	5935,18
446,013	5435,48
446,22	5648,47
446,426	5638,23
446,633	5945,42
446,839	6099,02
447,046	5697,62
447,252	5951,57
447,459	6047,82
447,665	5812,31
447,871	6053,97
448,078	6113,36
448,284	5763,15
448,491	5943,38
448,697	6295,63
448,903	6201,42
449,11	6305,87
449,316	6338,63
449,522	6301,77
449,728	6451,27
449,935	6604,87
450,141	6467,66
450,347	6799,43
450,553	6352,97
450,76	6408,26
450,966	6445,13
451,172	6246,48
451,378	6209,61
451,584	6213,71
451,791	5906,51
451,997	5976,14
452,203	6078,54
452,409	6148,17
452,615	6094,93
452,821	5810,26
453,027	5816,4
453,233	6082,64
453,44	5883,98
453,646	6193,23
453,852	6168,65
454,058	6467,66
454,264	6193,23
454,47	6410,31
454,676	6410,31
454,882	6803,52
455,088	5992,53
455,294	6486,09
455,5	6615,11
455,705	6897,73
455,911	6602,82
456,117	6637,64
456,323	6694,98
456,529	6408,26
456,735	6606,92
456,941	6602,82
457,147	6752,32
457,352	6459,46
457,558	6430,79
457,764	6627,4
457,97	6639,69
458,176	6555,72
458,381	6611,01
458,587	6520,9
458,793	6697,03
458,999	6631,49
459,204	7194,68
459,41	7295,04
459,616	6678,6
459,821	7032,9
460,027	7176,25
460,233	7499,83
460,438	6989,89
460,644	7508,02
460,85	7229,5
461,055	7327,8
461,261	7307,32
461,466	7139,39
461,672	6930,5
461,878	7790,64
462,083	7360,57
462,289	7229,5
462,494	7379
462,7	7108,67
462,905	6711,36
463,111	7309,37
463,316	7491,64
463,522	7667,77
463,727	7542,84
463,932	7874,61
464,138	7778,36
464,343	7759,92
464,549	7598,13
464,754	8349,74
464,959	8304,68
