Data from atmo_200_USB4F104151__3__16-41-46-045.txt Node

Date: Thu Mar 07 16:41:46 EST 2024
User: lauri
Spectrometer: USB4F10415
Trigger mode: 4
Integration Time (sec): 2,000000E-1
Scans to average: 1
Electric dark correction enabled: true
Nonlinearity correction enabled: false
Boxcar width: 0
XAxis mode: Wavelengths
Number of Pixels in Spectrum: 3648
>>>>>Begin Spectral Data<<<<<
178,204	-172,03
178,424	-172,03
178,644	-172,03
178,864	-184,32
179,084	-112,64
179,304	28,67
179,524	-45,06
179,744	-14,34
179,964	83,97
180,184	-34,82
180,404	-55,3
180,624	-14,34
180,844	43,01
181,064	2,05
181,283	47,1
181,503	-43,01
181,723	2,05
181,943	-90,11
182,163	172,03
182,383	88,06
182,602	96,25
182,822	149,5
183,042	149,5
183,262	96,25
183,482	100,35
183,701	122,88
183,921	129,02
184,141	98,3
184,361	153,6
184,58	118,78
184,8	180,22
185,02	81,92
185,239	139,26
185,459	161,79
185,679	120,83
185,898	124,93
186,118	75,77
186,338	217,08
186,557	65,53
186,777	77,82
186,997	43,01
187,216	110,59
187,436	151,55
187,655	69,63
187,875	147,45
188,095	126,97
188,314	141,31
188,534	221,18
188,753	79,87
188,973	92,16
189,192	147,45
189,412	139,26
189,631	86,01
189,851	88,06
190,07	120,83
190,29	100,35
190,509	73,73
190,729	26,62
190,948	114,69
191,168	256
191,387	124,93
191,607	147,45
191,826	172,03
192,045	110,59
192,265	118,78
192,484	86,01
192,704	108,54
192,923	112,64
193,142	212,99
193,362	53,25
193,581	135,17
193,8	92,16
194,02	110,59
194,239	137,21
194,458	83,97
194,678	81,92
194,897	73,73
195,116	120,83
195,335	108,54
195,555	36,86
195,774	71,68
195,993	114,69
196,212	81,92
196,432	129,02
196,651	75,77
196,87	129,02
197,089	137,21
197,308	100,35
197,528	176,13
197,747	-14,34
197,966	98,3
198,185	223,23
198,404	77,82
198,623	120,83
198,842	137,21
199,062	110,59
199,281	108,54
199,5	94,21
199,719	88,06
199,938	88,06
200,157	124,93
200,376	141,31
200,595	98,3
200,814	118,78
201,033	69,63
201,252	75,77
201,471	131,07
201,69	145,41
201,909	114,69
202,128	206,84
202,347	71,68
202,566	116,73
202,785	20,48
203,004	43,01
203,223	174,08
203,442	98,3
203,661	34,82
203,879	94,21
204,098	139,26
204,317	133,12
204,536	174,08
204,755	151,55
204,974	157,69
205,193	149,5
205,411	194,56
205,63	161,79
205,849	75,77
206,068	77,82
206,287	16,38
206,505	141,31
206,724	88,06
206,943	116,73
207,162	49,15
207,381	122,88
207,599	157,69
207,818	133,12
208,037	145,41
208,255	81,92
208,474	112,64
208,693	155,65
208,911	126,97
209,13	141,31
209,349	90,11
209,567	157,69
209,786	129,02
210,005	79,87
210,223	131,07
210,442	36,86
210,661	167,93
210,879	192,51
211,098	106,49
211,316	98,3
211,535	69,63
211,753	141,31
211,972	151,55
212,191	77,82
212,409	108,54
212,628	180,22
212,846	126,97
213,065	165,89
213,283	186,37
213,502	129,02
213,72	124,93
213,938	223,23
214,157	141,31
214,375	133,12
214,594	63,49
214,812	106,49
215,031	120,83
215,249	104,45
215,467	124,93
215,686	112,64
215,904	174,08
216,122	108,54
216,341	174,08
216,559	122,88
216,778	86,01
216,996	129,02
217,214	100,35
217,432	139,26
217,651	67,58
217,869	61,44
218,087	131,07
218,306	98,3
218,524	139,26
218,742	118,78
218,96	190,46
219,179	133,12
219,397	77,82
219,615	237,56
219,833	114,69
220,051	110,59
220,27	186,37
220,488	235,52
220,706	83,97
220,924	116,73
221,142	120,83
221,36	63,49
221,578	135,17
221,796	194,56
222,015	196,6
222,233	137,21
222,451	184,32
222,669	165,89
222,887	126,97
223,105	34,82
223,323	169,98
223,541	43,01
223,759	151,55
223,977	116,73
224,195	233,47
224,413	126,97
224,631	124,93
224,849	143,36
225,067	239,61
225,285	77,82
225,503	182,27
225,721	59,39
225,939	120,83
226,157	104,45
226,375	215,04
226,592	104,45
226,81	86,01
227,028	180,22
227,246	167,93
227,464	143,36
227,682	159,74
227,9	198,65
228,117	172,03
228,335	176,13
228,553	172,03
228,771	204,8
228,989	116,73
229,206	153,6
229,424	131,07
229,642	159,74
229,86	63,49
230,077	204,8
230,295	165,89
230,513	223,23
230,731	172,03
230,948	126,97
231,166	135,17
231,384	102,4
231,601	129,02
231,819	147,45
232,037	145,41
232,254	100,35
232,472	161,79
232,689	57,34
232,907	124,93
233,125	165,89
233,342	198,65
233,56	172,03
233,777	133,12
233,995	86,01
234,213	145,41
234,43	149,5
234,648	67,58
234,865	98,3
235,083	174,08
235,3	129,02
235,518	83,97
235,735	143,36
235,953	124,93
236,17	75,77
236,388	110,59
236,605	145,41
236,822	167,93
237,04	126,97
237,257	149,5
237,475	40,96
237,692	145,41
237,909	178,17
238,127	108,54
238,344	163,84
238,562	36,86
238,779	167,93
238,996	108,54
239,214	165,89
239,431	192,51
239,648	159,74
239,865	110,59
240,083	149,5
240,3	165,89
240,517	163,84
240,735	65,53
240,952	94,21
241,169	206,84
241,386	45,06
241,603	90,11
241,821	131,07
242,038	208,89
242,255	190,46
242,472	53,25
242,689	141,31
242,907	208,89
243,124	194,56
243,341	108,54
243,558	61,44
243,775	137,21
243,992	174,08
244,209	88,06
244,426	256
244,643	165,89
244,86	155,65
245,078	45,06
245,295	139,26
245,512	124,93
245,729	141,31
245,946	118,78
246,163	131,07
246,38	129,02
246,597	157,69
246,814	176,13
247,031	100,35
247,248	73,73
247,464	172,03
247,681	143,36
247,898	231,42
248,115	176,13
248,332	186,37
248,549	174,08
248,766	186,37
248,983	163,84
249,2	235,52
249,417	157,69
249,633	157,69
249,85	212,99
250,067	69,63
250,284	157,69
250,501	65,53
250,717	157,69
250,934	92,16
251,151	126,97
251,368	75,77
251,585	208,89
251,801	137,21
252,018	139,26
252,235	126,97
252,451	96,25
252,668	126,97
252,885	129,02
253,102	167,93
253,318	135,17
253,535	75,77
253,752	110,59
253,968	124,93
254,185	61,44
254,401	120,83
254,618	159,74
254,835	120,83
255,051	223,23
255,268	108,54
255,484	174,08
255,701	96,25
255,917	153,6
256,134	141,31
256,351	108,54
256,567	108,54
256,784	139,26
257	114,69
257,217	122,88
257,433	102,4
257,65	120,83
257,866	167,93
258,082	22,53
258,299	96,25
258,515	133,12
258,732	149,5
258,948	153,6
259,165	206,84
259,381	188,41
259,597	88,06
259,814	192,51
260,03	110,59
260,246	122,88
260,463	159,74
260,679	217,08
260,895	135,17
261,112	194,56
261,328	98,3
261,544	178,17
261,761	194,56
261,977	159,74
262,193	106,49
262,409	219,13
262,626	243,71
262,842	79,87
263,058	151,55
263,274	206,84
263,49	153,6
263,707	176,13
263,923	100,35
264,139	145,41
264,355	153,6
264,571	139,26
264,787	139,26
265,004	155,65
265,22	126,97
265,436	174,08
265,652	88,06
265,868	116,73
266,084	98,3
266,3	96,25
266,516	133,12
266,732	65,53
266,948	116,73
267,164	153,6
267,38	153,6
267,596	139,26
267,812	251,9
268,028	172,03
268,244	124,93
268,46	188,41
268,676	141,31
268,892	131,07
269,108	114,69
269,324	43,01
269,54	106,49
269,756	149,5
269,972	94,21
270,188	231,42
270,403	139,26
270,619	141,31
270,835	180,22
271,051	227,32
271,267	147,45
271,483	182,27
271,698	145,41
271,914	118,78
272,13	176,13
272,346	167,93
272,562	153,6
272,777	145,41
272,993	118,78
273,209	122,88
273,425	184,32
273,64	129,02
273,856	190,46
274,072	182,27
274,287	88,06
274,503	120,83
274,719	149,5
274,934	77,82
275,15	110,59
275,366	174,08
275,581	163,84
275,797	186,37
276,012	102,4
276,228	106,49
276,444	114,69
276,659	83,97
276,875	143,36
277,09	112,64
277,306	135,17
277,521	126,97
277,737	172,03
277,952	204,8
278,168	120,83
278,383	192,51
278,599	88,06
278,814	210,94
279,03	157,69
279,245	215,04
279,461	120,83
279,676	184,32
279,892	137,21
280,107	151,55
280,322	202,75
280,538	133,12
280,753	100,35
280,969	153,6
281,184	143,36
281,399	247,8
281,615	196,6
281,83	190,46
282,045	192,51
282,26	73,73
282,476	153,6
282,691	151,55
282,906	190,46
283,122	67,58
283,337	212,99
283,552	192,51
283,767	124,93
283,983	163,84
284,198	184,32
284,413	147,45
284,628	118,78
284,843	190,46
285,058	90,11
285,274	192,51
285,489	71,68
285,704	141,31
285,919	98,3
286,134	180,22
286,349	81,92
286,564	61,44
286,779	192,51
286,995	204,8
287,21	155,65
287,425	186,37
287,64	194,56
287,855	116,73
288,07	116,73
288,285	131,07
288,5	208,89
288,715	264,19
288,93	143,36
289,145	135,17
289,36	249,85
289,575	122,88
289,79	202,75
290,004	122,88
290,219	206,84
290,434	69,63
290,649	184,32
290,864	200,7
291,079	196,6
291,294	120,83
291,509	253,95
291,724	192,51
291,938	159,74
292,153	227,32
292,368	192,51
292,583	176,13
292,798	163,84
293,012	159,74
293,227	210,94
293,442	94,21
293,657	245,76
293,871	282,62
294,086	163,84
294,301	272,38
294,516	202,75
294,73	155,65
294,945	94,21
295,16	141,31
295,374	258,04
295,589	184,32
295,804	40,96
296,018	245,76
296,233	282,62
296,447	165,89
296,662	98,3
296,877	262,14
297,091	137,21
297,306	151,55
297,52	182,27
297,735	120,83
297,949	124,93
298,164	194,56
298,378	139,26
298,593	135,17
298,807	141,31
299,022	178,17
299,236	219,13
299,451	151,55
299,665	206,84
299,88	190,46
300,094	161,79
300,309	208,89
300,523	165,89
300,737	137,21
300,952	190,46
301,166	161,79
301,381	178,17
301,595	90,11
301,809	194,56
302,024	253,95
302,238	139,26
302,452	157,69
302,667	135,17
302,881	258,04
303,095	215,04
303,309	149,5
303,524	151,55
303,738	192,51
303,952	161,79
304,166	210,94
304,381	71,68
304,595	237,56
304,809	223,23
305,023	208,89
305,237	186,37
305,452	159,74
305,666	247,8
305,88	208,89
306,094	229,37
306,308	251,9
306,522	237,56
306,736	174,08
306,95	208,89
307,164	180,22
307,379	243,71
307,593	348,15
307,807	296,96
308,021	219,13
308,235	309,24
308,449	276,48
308,663	370,68
308,877	387,07
309,091	432,12
309,305	473,08
309,519	378,87
309,733	405,5
309,947	430,07
310,161	514,04
310,374	440,31
310,588	571,38
310,802	550,9
311,016	616,44
311,23	589,81
311,444	667,64
311,658	589,81
311,872	798,71
312,085	837,62
312,299	821,24
312,513	870,39
312,727	849,91
312,941	819,19
313,154	849,91
313,368	921,59
313,582	948,21
313,796	1034,22
314,009	1056,75
314,223	1208,3
314,437	1277,93
314,651	1341,42
314,864	1378,28
315,078	1445,87
315,292	1495,02
315,505	1578,98
315,719	1785,83
315,933	1900,51
316,146	1984,48
316,36	2052,06
316,573	2283,49
316,787	2381,79
317,001	2351,07
317,214	2705,37
317,428	2654,17
317,641	2838,48
317,855	3026,9
318,068	3131,34
318,282	3270,61
318,495	3327,95
318,709	3373
318,922	3590,09
319,136	3516,36
319,349	3622,86
319,563	3721,16
319,776	3856,33
319,99	3653,58
320,203	3737,54
320,417	3784,65
320,63	3962,82
320,843	3995,59
321,057	4364,22
321,27	4517,82
321,483	4693,94
321,697	4894,65
321,91	5005,24
322,124	5320,62
322,337	5337,01
322,55	5461,93
322,763	5812,14
322,977	5758,89
323,19	6227,87
323,403	6518,68
323,617	6948,76
323,83	7307,15
324,043	7477,13
324,256	7808,9
324,469	8163,2
324,683	8281,99
324,896	8480,64
325,109	8351,62
325,322	8439,68
325,535	8761,21
325,748	8636,28
325,962	8998,77
326,175	9054,07
326,388	9279,35
326,601	9699,18
326,814	9938,79
327,027	10186,6
327,24	10260,32
327,453	10772,32
327,666	10608,48
327,879	10669,92
328,092	11112,28
328,305	10854,23
328,518	10907,48
328,731	10829,66
328,944	10809,18
329,157	10712,92
329,37	11013,98
329,583	11011,93
329,796	10932,06
330,009	10954,58
330,222	11147,09
330,435	11282,26
330,648	11327,32
330,861	11495,25
331,073	11267,92
331,286	11304,79
331,499	11130,71
331,712	11530,06
331,925	11605,84
332,138	11630,41
332,35	11822,92
332,563	11933,51
332,776	11865,93
332,989	11923,27
333,202	11880,27
333,414	11736,91
333,627	12021,58
333,84	11757,39
334,053	11478,86
334,265	11401,04
334,478	11499,34
334,691	11431,76
334,903	11415,38
335,116	11323,22
335,329	11566,93
335,541	11818,83
335,754	11759,44
335,966	11827,02
336,179	12097,35
336,392	12574,53
336,604	12392,26
336,817	12721,98
337,029	13004,6
337,242	13145,91
337,454	13260,6
337,667	13422,39
337,88	13821,74
338,092	13768,49
338,305	14126,89
338,517	14122,79
338,729	14133,03
338,942	13758,25
339,154	14149,42
339,367	14182,18
339,579	14108,46
339,792	14528,29
340,004	14681,89
340,217	14350,12
340,429	14548,77
340,641	14343,97
340,854	14282,53
341,066	14257,96
341,278	14044,97
341,491	14182,18
341,703	13682,48
341,915	13907,76
342,128	13817,65
342,34	13643,57
342,552	13745,97
342,764	13729,58
342,977	13610,8
343,189	13946,67
343,401	13969,19
343,613	13969,19
343,826	14233,38
344,038	14268,2
344,25	14397,22
344,462	14763,81
344,674	14108,46
344,886	14468,9
345,099	14327,59
345,311	14294,82
345,523	14642,98
345,735	14575,39
345,947	14536,48
346,159	14634,78
346,371	14487,33
346,583	14610,21
346,795	14685,98
347,007	14757,66
347,219	14692,13
347,431	15142,68
347,643	15167,26
347,855	15109,91
348,067	15716,11
348,279	16099,08
348,491	15804,17
348,703	16197,38
348,915	16011,02
349,127	16146,19
349,339	16299,78
349,551	15984,4
349,763	16084,75
349,975	15816,46
350,187	15961,87
350,399	16256,78
350,61	15902,48
350,822	16422,66
351,034	16340,74
351,246	16256,78
351,458	16692,99
351,669	16989,95
351,881	17045,24
352,093	17700,59
352,305	17288,95
352,517	17716,98
352,728	17710,83
352,94	17909,49
353,152	17643,25
353,363	17876,72
353,575	17338,1
353,787	17391,35
353,999	16779,01
354,21	17006,33
354,422	16328,45
354,633	16760,58
354,845	15519,51
355,057	15142,68
355,268	15005,47
355,48	14438,18
355,692	14530,34
355,903	14352,16
356,115	13907,76
356,326	14139,18
356,538	14243,62
356,749	14298,92
356,961	14563,11
357,172	15232,79
357,384	15527,7
357,595	16078,6
357,807	15849,23
358,018	16291,59
358,23	16418,57
358,441	16674,56
358,653	17022,72
358,864	16531,2
359,075	16742,14
359,287	16604,93
359,498	17153,79
359,709	17303,29
359,921	16776,96
360,132	17258,23
360,344	17624,82
360,555	17837,81
360,766	17649,39
360,977	18333,42
361,189	18104,04
361,4	18335,46
361,611	18710,24
361,823	18462,44
362,034	19068,64
362,245	19068,64
362,456	19156,7
362,667	19412,7
362,879	19797,71
363,09	20448,97
363,301	20586,18
363,512	21024,45
363,723	21341,88
363,935	21888,69
364,146	22113,97
364,357	22064,82
364,568	22498,98
364,779	22992,55
364,99	22644,39
365,201	22566,57
365,412	22591,14
365,623	22392,49
365,834	22451,88
366,045	22855,33
366,256	22150,83
366,467	22277,8
366,678	22472,36
366,889	22419,11
367,1	22277,8
367,311	22804,13
367,522	22650,53
367,733	23137,95
367,944	22734,5
368,155	23017,12
368,366	22744,74
368,577	23189,15
368,788	23029,41
368,999	22830,76
369,209	22759,08
369,42	22851,24
369,631	22322,86
369,842	22324,91
370,053	22128,3
370,264	21728,95
370,474	21427,9
370,685	21161,66
370,896	20582,09
371,107	20567,75
371,317	19687,12
371,528	19613,4
371,739	19236,57
371,95	19388,12
372,16	19111,64
372,371	18990,81
372,582	18919,14
372,792	18972,38
373,003	18863,84
373,214	19736,27
373,424	19568,34
373,635	19721,94
373,846	20647,62
374,056	20799,17
374,267	20707,01
374,477	21190,33
374,688	21718,71
374,898	21880,5
375,109	22539,94
375,319	23350,94
375,53	23889,56
375,74	24974,98
375,951	24389,26
376,161	24764,04
376,372	25321,09
376,582	24925,83
376,793	24764,04
377,003	24583,82
377,214	24104,59
377,424	24108,69
377,635	24536,71
377,845	23064,22
378,055	23332,51
378,266	23656,09
378,476	22951,59
378,686	23275,16
378,897	23205,53
379,107	22986,4
379,317	22646,44
379,528	22136,49
379,738	21526,2
379,948	20707,01
380,158	19810
380,369	19396,31
380,579	18921,18
380,789	17886,96
380,999	17637,11
381,21	17266,42
381,42	16781,06
381,63	16740,1
381,84	16877,31
382,05	16813,82
382,261	16998,14
382,471	17872,62
382,681	17948,4
382,891	19003,1
383,101	18990,81
383,311	19060,45
383,521	19291,87
383,731	19396,31
383,941	19828,43
384,151	20362,95
384,361	20547,27
384,571	20879,04
384,781	20410,06
384,991	21296,83
385,201	20479,69
385,411	20897,47
385,621	20707,01
385,831	20811,46
386,041	20590,28
386,251	20881,09
386,461	20876,99
386,671	21415,61
386,881	21481,14
387,091	21358,27
387,301	21694,13
387,511	22808,23
387,72	22572,71
387,93	23127,71
388,14	23330,46
388,35	24120,98
388,56	24755,85
388,769	24383,12
388,979	25257,6
389,189	24839,81
389,399	25267,84
389,609	25222,78
389,818	24739,46
390,028	24391,31
390,238	23991,95
390,447	23279,26
390,657	21581,49
390,867	20473,54
391,076	19068,64
391,286	18378,47
391,496	17503,99
391,705	17708,79
391,915	17796,85
392,125	18142,96
392,334	18476,77
392,544	18755,3
392,753	19138,27
392,963	20637,38
393,172	20770,5
393,382	21376,7
393,591	21644,98
393,801	21685,94
394,01	20639,43
394,22	20784,83
394,429	20790,98
394,639	19562,2
394,848	19467,99
395,058	19216,09
395,267	19338,97
395,477	19621,59
395,686	21026,5
395,895	21649,08
396,105	22843,04
396,314	23508,63
396,524	24907,4
396,733	26072,69
396,942	27631,19
397,152	28407,37
397,361	28614,22
397,57	29369,92
397,78	29789,75
397,989	30307,89
398,198	32044,57
398,407	32058,9
398,617	31727,13
398,826	33033,74
399,035	32351,76
399,244	32321,04
399,453	33220,1
399,663	33902,07
399,872	34354,68
400,081	34418,16
400,29	33713,66
400,499	34440,69
400,708	33230,34
400,917	34481,65
401,127	33185,29
401,336	34096,63
401,545	33314,31
401,754	33316,36
401,963	34428,4
402,172	33752,57
402,381	32724,49
402,59	34586,1
402,799	33422,85
403,008	33052,17
403,217	32364,05
403,426	33050,12
403,635	32536,08
403,844	32593,42
404,053	32919,05
404,262	32601,61
404,471	32405,01
404,68	32525,84
404,888	31452,7
405,097	31714,84
405,306	32460,3
405,515	32329,23
405,724	32050,71
405,933	33461,76
406,142	32699,92
406,35	32622,09
406,559	34829,8
406,768	34291,19
406,977	33988,09
407,185	34770,41
407,394	33564,16
407,603	34088,44
407,812	33457,67
408,02	33629,69
408,229	32826,89
408,438	32943,63
408,646	33068,55
408,855	32798,22
409,064	33598,98
409,272	33666,56
409,481	34663,92
409,69	34645,49
409,898	34170,36
410,107	35349,99
410,315	34385,4
410,524	35632,61
410,733	34991,59
410,941	35227,11
411,15	34678,25
411,358	34946,54
411,567	34973,16
411,775	35329,51
411,984	35024,36
412,192	35261,93
412,401	35053,03
412,609	35507,68
412,818	35001,83
413,026	35036,65
413,234	35040,75
413,443	34872,81
413,651	34964,97
413,86	35026,41
414,068	35044,84
414,276	35223,01
414,485	34495,99
414,693	34729,45
414,901	34993,64
415,11	35382,76
415,318	33945,08
415,526	34665,97
415,734	34029,05
415,943	34059,77
416,151	33662,46
416,359	33521,15
416,567	32896,52
416,776	33054,22
416,984	33295,88
417,192	33312,26
417,4	32630,29
417,608	31829,53
417,817	32781,84
418,025	32560,66
418,233	33027,59
418,441	32222,74
418,649	33091,08
418,857	33867,26
419,065	33089,03
419,273	32417,3
419,481	32998,92
419,689	34254,33
419,897	34055,67
420,105	33932,79
420,313	32933,39
420,521	32579,09
420,729	31979,03
420,937	32431,63
421,145	31850,01
421,353	32495,12
421,561	32077,33
421,769	32405,01
421,977	32656,91
422,185	31165,99
422,393	32531,98
422,601	32962,06
422,809	31960,6
423,017	32108,05
423,224	31753,76
423,432	31811,1
423,64	31581,73
423,848	32982,54
424,056	31172,13
424,263	32321,04
424,471	31604,25
424,679	30864,94
424,887	31628,83
425,094	31907,35
425,302	30979,62
425,51	31600,16
425,718	30596,65
425,925	30641,71
426,133	30651,95
426,341	31153,7
426,548	31401,5
426,756	30666,28
426,964	30000,69
427,171	30746,15
427,379	29912,63
427,586	29255,23
427,794	28692,04
428,001	28956,23
428,209	27989,59
428,417	26838,63
428,624	27309,66
428,832	26400,37
429,039	25568,89
429,247	25343,61
429,454	26957,41
429,662	28857,93
429,869	27178,59
430,076	29513,28
430,284	28499,53
430,491	29632,06
430,699	30969,38
430,906	30856,75
431,114	30600,75
431,321	31292,96
431,528	30959,14
431,736	32454,16
431,943	33121,8
432,15	31479,33
432,358	31852,06
432,565	32083,48
432,772	31411,74
432,979	32620,05
433,187	32452,11
433,394	32939,53
433,601	33838,59
433,808	34067,96
434,016	33570,3
434,223	34924,01
434,43	36470,23
434,637	35341,8
434,844	36603,35
435,052	36677,07
435,259	35569,12
435,466	35141,1
435,673	34268,66
435,88	35855,84
436,087	35804,64
436,294	35118,57
436,501	33363,46
436,708	33072,65
436,915	33627,65
437,122	34113,02
437,329	32781,84
437,537	34156,02
437,743	33924,6
437,95	33480,19
438,157	34180,6
438,364	34997,74
438,571	34483,7
438,778	34020,86
438,985	36048,35
439,192	35102,18
439,399	35827,17
439,606	34469,36
439,813	36117,98
440,02	37582,27
440,227	36953,55
440,433	36220,38
440,64	37524,93
440,847	36021,72
441,054	36466,13
441,261	37836,22
441,467	36910,54
441,674	36931,02
441,881	37473,73
442,088	37385,67
442,294	36857,29
442,501	36814,29
442,708	36752,85
442,914	37672,39
443,121	38077,88
443,328	37191,11
443,534	38528,44
443,741	36664,78
443,948	35321,32
444,154	36720,08
444,361	35737,05
444,568	35393
444,774	34815,47
444,981	35304,93
445,187	35569,12
445,394	36189,66
445,6	35771,87
