Data from sun_USB4F104151__8__16-40-13-874.txt Node

Date: Thu Mar 07 16:40:13 EST 2024
User: lauri
Spectrometer: USB4F10415
Trigger mode: 4
Integration Time (sec): 2,000000E-3
Scans to average: 1
Electric dark correction enabled: true
Nonlinearity correction enabled: false
Boxcar width: 0
XAxis mode: Wavelengths
Number of Pixels in Spectrum: 3648
>>>>>Begin Spectral Data<<<<<
178,204	16,38
178,424	16,38
178,644	16,38
178,864	-47,1
179,084	-4,1
179,304	63,49
179,524	-43,01
179,744	-12,29
179,964	-24,58
180,184	-6,14
180,404	-20,48
180,624	59,39
180,844	12,29
181,064	47,1
181,283	-6,14
181,503	-40,96
181,723	-28,67
181,943	-51,2
182,163	-18,43
182,383	-77,82
182,602	6,14
182,822	6,14
183,042	-28,67
183,262	-45,06
183,482	32,77
183,701	-67,58
183,921	-28,67
184,141	-8,19
184,361	-22,53
184,58	-12,29
184,8	24,58
185,02	-59,39
185,239	-22,53
185,459	10,24
185,679	-16,38
185,898	-49,15
186,118	-47,1
186,338	-20,48
186,557	22,53
186,777	-10,24
186,997	36,86
187,216	45,06
187,436	-30,72
187,655	32,77
187,875	-16,38
188,095	-16,38
188,314	-43,01
188,534	-71,68
188,753	-71,68
188,973	-18,43
189,192	-4,1
189,412	55,3
189,631	-55,3
189,851	-45,06
190,07	55,3
190,29	-18,43
190,509	-38,91
190,729	2,05
190,948	-18,43
191,168	-8,19
191,387	4,1
191,607	-18,43
191,826	47,1
192,045	8,19
192,265	4,1
192,484	83,97
192,704	0
192,923	-8,19
193,142	6,14
193,362	-8,19
193,581	38,91
193,8	-6,14
194,02	-10,24
194,239	-45,06
194,458	-12,29
194,678	32,77
194,897	-51,2
195,116	-20,48
195,335	32,77
195,555	-34,82
195,774	38,91
195,993	-129,02
196,212	10,24
196,432	-2,05
196,651	0
196,87	24,58
197,089	65,54
197,308	-6,14
197,528	34,82
197,747	2,05
197,966	-38,91
198,185	-2,05
198,404	-24,58
198,623	14,34
198,842	-4,1
199,062	28,67
199,281	-2,05
199,5	-4,1
199,719	6,14
199,938	14,34
200,157	-79,87
200,376	-20,48
200,595	0
200,814	-12,29
201,033	22,53
201,252	-2,05
201,471	12,29
201,69	34,82
201,909	-10,24
202,128	-65,53
202,347	28,67
202,566	67,58
202,785	-6,14
203,004	-6,14
203,223	-77,82
203,442	4,1
203,661	-53,25
203,879	-28,67
204,098	51,2
204,317	36,86
204,536	16,38
204,755	-28,67
204,974	-8,19
205,193	43,01
205,411	-26,62
205,63	-4,1
205,849	-18,43
206,068	43,01
206,287	-10,24
206,505	-34,82
206,724	-36,86
206,943	45,06
207,162	-92,16
207,381	-38,91
207,599	14,34
207,818	12,29
208,037	-20,48
208,255	-18,43
208,474	65,54
208,693	-8,19
208,911	61,44
209,13	-106,49
209,349	-43,01
209,567	-26,62
209,786	47,1
210,005	-32,77
210,223	-61,44
210,442	-47,1
210,661	18,43
210,879	2,05
211,098	-45,06
211,316	-47,1
211,535	-59,39
211,753	36,86
211,972	8,19
212,191	45,06
212,409	-43,01
212,628	38,91
212,846	-98,3
213,065	-47,1
213,283	-20,48
213,502	26,62
213,72	-34,82
213,938	34,82
214,157	-110,59
214,375	-81,92
214,594	34,82
214,812	-26,62
215,031	-8,19
215,249	32,77
215,467	43,01
215,686	-108,54
215,904	20,48
216,122	-18,43
216,341	10,24
216,559	-36,86
216,778	-38,91
216,996	-16,38
217,214	-49,15
217,432	-2,05
217,651	65,54
217,869	26,62
218,087	30,72
218,306	-36,86
218,524	-4,1
218,742	-12,29
218,96	-57,34
219,179	-2,05
219,397	8,19
219,615	-61,44
219,833	-43,01
220,051	-16,38
220,27	14,34
220,488	26,62
220,706	-47,1
220,924	-32,77
221,142	-53,25
221,36	-32,77
221,578	16,38
221,796	-55,3
222,015	-10,24
222,233	4,1
222,451	-92,16
222,669	-18,43
222,887	-55,3
223,105	22,53
223,323	-83,97
223,541	24,58
223,759	-4,1
223,977	-104,45
224,195	-10,24
224,413	6,14
224,631	12,29
224,849	-10,24
225,067	6,14
225,285	14,34
225,503	-47,1
225,721	-2,05
225,939	-2,05
226,157	-18,43
226,375	71,68
226,592	-43,01
226,81	26,62
227,028	26,62
227,246	6,14
227,464	30,72
227,682	-45,06
227,9	4,1
228,117	43,01
228,335	2,05
228,553	-12,29
228,771	0
228,989	8,19
229,206	-45,06
229,424	6,14
229,642	88,06
229,86	-16,38
230,077	38,91
230,295	-24,58
230,513	32,77
230,731	-14,34
230,948	-4,1
231,166	30,72
231,384	-126,97
231,601	8,19
231,819	-14,34
232,037	8,19
232,254	-18,43
232,472	-16,38
232,689	-53,25
232,907	22,53
233,125	-59,39
233,342	-10,24
233,56	28,67
233,777	6,14
233,995	0
234,213	22,53
234,43	-22,53
234,648	36,86
234,865	-43,01
235,083	36,86
235,3	-10,24
235,518	-14,34
235,735	-28,67
235,953	22,53
236,17	-16,38
236,388	-20,48
236,605	-30,72
236,822	-57,34
237,04	36,86
237,257	4,1
237,475	-22,53
237,692	34,82
237,909	28,67
238,127	-10,24
238,344	61,44
238,562	16,38
238,779	-59,39
238,996	22,53
239,214	8,19
239,431	38,91
239,648	-34,82
239,865	-38,91
240,083	-2,05
240,3	4,1
240,517	-69,63
240,735	43,01
240,952	20,48
241,169	-6,14
241,386	22,53
241,603	-28,67
241,821	14,34
242,038	-20,48
242,255	45,06
242,472	-28,67
242,689	-26,62
242,907	-10,24
243,124	-2,05
243,341	55,3
243,558	-57,34
243,775	22,53
243,992	-59,39
244,209	28,67
244,426	12,29
244,643	36,86
244,86	6,14
245,078	-16,38
245,295	20,48
245,512	63,49
245,729	-22,53
245,946	-43,01
246,163	63,49
246,38	-16,38
246,597	30,72
246,814	34,82
247,031	8,19
247,248	-55,3
247,464	-16,38
247,681	2,05
247,898	-40,96
248,115	-22,53
248,332	-38,91
248,549	-2,05
248,766	8,19
248,983	6,14
249,2	14,34
249,417	-34,82
249,633	18,43
249,85	-43,01
250,067	-43,01
250,284	-43,01
250,501	49,15
250,717	34,82
250,934	-43,01
251,151	-40,96
251,368	-10,24
251,585	14,34
251,801	-88,06
252,018	47,1
252,235	-53,25
252,451	10,24
252,668	-6,14
252,885	49,15
253,102	-57,34
253,318	6,14
253,535	-28,67
253,752	-40,96
253,968	40,96
254,185	16,38
254,401	8,19
254,618	26,62
254,835	-86,01
255,051	-14,34
255,268	-12,29
255,484	-51,2
255,701	-40,96
255,917	-4,1
256,134	-14,34
256,351	-36,86
256,567	67,58
256,784	-2,05
257	12,29
257,217	24,58
257,433	-43,01
257,65	-77,82
257,866	-30,72
258,082	-51,2
258,299	43,01
258,515	6,14
258,732	-8,19
258,948	53,25
259,165	-55,3
259,381	-16,38
259,597	-67,58
259,814	18,43
260,03	65,54
260,246	-18,43
260,463	-22,53
260,679	4,1
260,895	-24,58
261,112	-14,34
261,328	16,38
261,544	-14,34
261,761	-61,44
261,977	0
262,193	-26,62
262,409	73,73
262,626	-71,68
262,842	38,91
263,058	-49,15
263,274	10,24
263,49	-32,77
263,707	16,38
263,923	-14,34
264,139	-30,72
264,355	2,05
264,571	-4,1
264,787	-55,3
265,004	32,77
265,22	32,77
265,436	-40,96
265,652	-36,86
265,868	55,3
266,084	-73,73
266,3	40,96
266,516	6,14
266,732	-34,82
266,948	-4,1
267,164	-47,1
267,38	-77,82
267,596	-34,82
267,812	-38,91
268,028	6,14
268,244	-57,34
268,46	2,05
268,676	-61,44
268,892	47,1
269,108	-30,72
269,324	-61,44
269,54	-28,67
269,756	-18,43
269,972	-26,62
270,188	8,19
270,403	2,05
270,619	-30,72
270,835	22,53
271,051	12,29
271,267	-2,05
271,483	38,91
271,698	-38,91
271,914	8,19
272,13	-53,25
272,346	-43,01
272,562	-22,53
272,777	47,1
272,993	-28,67
273,209	-45,06
273,425	-26,62
273,64	12,29
273,856	-57,34
274,072	-26,62
274,287	-14,34
274,503	12,29
274,719	69,63
274,934	-24,58
275,15	-24,58
275,366	-2,05
275,581	-40,96
275,797	90,11
276,012	-22,53
276,228	26,62
276,444	12,29
276,659	-36,86
276,875	18,43
277,09	24,58
277,306	-16,38
277,521	-28,67
277,737	-30,72
277,952	63,49
278,168	-108,54
278,383	-47,1
278,599	-26,62
278,814	-24,58
279,03	-47,1
279,245	-49,15
279,461	-20,48
279,676	36,86
279,892	-24,58
280,107	36,86
280,322	-18,43
280,538	20,48
280,753	-30,72
280,969	-6,14
281,184	-10,24
281,399	-2,05
281,615	26,62
281,83	14,34
282,045	-8,19
282,26	-63,49
282,476	-59,39
282,691	55,3
282,906	-28,67
283,122	51,2
283,337	43,01
283,552	14,34
283,767	-36,86
283,983	12,29
284,198	-36,86
284,413	-4,1
284,628	2,05
284,843	-2,05
285,058	-59,39
285,274	-8,19
285,489	-24,58
285,704	8,19
285,919	-4,1
286,134	16,38
286,349	22,53
286,564	-28,67
286,779	-16,38
286,995	38,91
287,21	-24,58
287,425	12,29
287,64	-83,97
287,855	51,2
288,07	-34,82
288,285	-43,01
288,5	34,82
288,715	-4,1
288,93	57,34
289,145	-63,49
289,36	-4,1
289,575	10,24
289,79	-10,24
290,004	-36,86
290,219	12,29
290,434	65,54
290,649	-10,24
290,864	-4,1
291,079	-16,38
291,294	-22,53
291,509	-2,05
291,724	-61,44
291,938	-94,21
292,153	24,58
292,368	-75,77
292,583	49,15
292,798	38,91
293,012	-65,53
293,227	-10,24
293,442	8,19
293,657	-20,48
293,871	20,48
294,086	-61,44
294,301	6,14
294,516	-43,01
294,73	40,96
294,945	0
295,16	-38,91
295,374	-16,38
295,589	-6,14
295,804	8,19
296,018	30,72
296,233	-22,53
296,447	-22,53
296,662	-2,05
296,877	-22,53
297,091	20,48
297,306	-32,77
297,52	-75,77
297,735	0
297,949	16,38
298,164	-32,77
298,378	-20,48
298,593	-2,05
298,807	-47,1
299,022	-10,24
299,236	-38,91
299,451	47,1
299,665	2,05
299,88	10,24
300,094	-36,86
300,309	0
300,523	-18,43
300,737	-10,24
300,952	51,2
301,166	-20,48
301,381	-28,67
301,595	-12,29
301,809	-90,11
302,024	34,82
302,238	16,38
302,452	28,67
302,667	69,63
302,881	14,34
303,095	-65,53
303,309	14,34
303,524	-40,96
303,738	22,53
303,952	6,14
304,166	30,72
304,381	-28,67
304,595	-59,39
304,809	-28,67
305,023	-83,97
305,237	28,67
305,452	-47,1
305,666	-59,39
305,88	16,38
306,094	-16,38
306,308	4,1
306,522	-61,44
306,736	-10,24
306,95	-65,53
307,164	-2,05
307,379	-12,29
307,593	-24,58
307,807	8,19
308,021	22,53
308,235	-45,06
308,449	-18,43
308,663	-18,43
308,877	26,62
309,091	-32,77
309,305	-49,15
309,519	-8,19
309,733	6,14
309,947	34,82
310,161	61,44
310,374	-24,58
310,588	-28,67
310,802	-12,29
311,016	-4,1
311,23	-2,05
311,444	14,34
311,658	43,01
311,872	-2,05
312,085	-59,39
312,299	-34,82
312,513	-10,24
312,727	-18,43
312,941	-40,96
313,154	-75,77
313,368	6,14
313,582	-28,67
313,796	14,34
314,009	30,72
314,223	-30,72
314,437	-26,62
314,651	10,24
314,864	-6,14
315,078	-77,82
315,292	-49,15
315,505	-20,48
315,719	-20,48
315,933	-24,58
316,146	-2,05
316,36	20,48
316,573	16,38
316,787	10,24
317,001	61,44
317,214	38,91
317,428	6,14
317,641	-18,43
317,855	4,1
318,068	-38,91
318,282	-104,45
318,495	-94,21
318,709	14,34
318,922	2,05
319,136	49,15
319,349	-116,73
319,563	-59,39
319,776	2,05
319,99	-36,86
320,203	-28,67
320,417	-43,01
320,63	98,3
320,843	8,19
321,057	-36,86
321,27	-124,93
321,483	2,05
321,697	-12,29
321,91	14,34
322,124	-61,44
322,337	12,29
322,55	18,43
322,763	-61,44
322,977	65,54
323,19	-47,1
323,403	-57,34
323,617	-8,19
323,83	8,19
324,043	-45,06
324,256	-8,19
324,469	-16,38
324,683	2,05
324,896	-28,67
325,109	24,58
325,322	8,19
325,535	18,43
325,748	14,34
325,962	-86,01
326,175	-10,24
326,388	12,29
326,601	38,91
326,814	-61,44
327,027	0
327,24	32,77
327,453	2,05
327,666	2,05
327,879	20,48
328,092	16,38
328,305	-55,3
328,518	-28,67
328,731	61,44
328,944	-49,15
329,157	-28,67
329,37	45,06
329,583	-34,82
329,796	-38,91
330,009	47,1
330,222	-71,68
330,435	12,29
330,648	57,34
330,861	10,24
331,073	22,53
331,286	-59,39
331,499	-10,24
331,712	12,29
331,925	6,14
332,138	-6,14
332,35	-34,82
332,563	-38,91
332,776	-4,1
332,989	-10,24
333,202	43,01
333,414	-10,24
333,627	-30,72
333,84	12,29
334,053	-53,25
334,265	-6,14
334,478	-83,97
334,691	-20,48
334,903	6,14
335,116	-18,43
335,329	12,29
335,541	-6,14
335,754	36,86
335,966	-20,48
336,179	12,29
336,392	45,06
336,604	-38,91
336,817	-75,77
337,029	4,1
337,242	30,72
337,454	-38,91
337,667	30,72
337,88	-57,34
338,092	69,63
338,305	-30,72
338,517	4,1
338,729	-36,86
338,942	-12,29
339,154	-20,48
339,367	67,58
339,579	45,06
339,792	-16,38
340,004	-32,77
340,217	20,48
340,429	-4,1
340,641	-45,06
340,854	-28,67
341,066	2,05
341,278	-6,14
341,491	-28,67
341,703	-38,91
341,915	47,1
342,128	14,34
342,34	-24,58
342,552	55,3
342,764	-51,2
342,977	77,82
343,189	30,72
343,401	98,3
343,613	20,48
343,826	28,67
344,038	-40,96
344,25	8,19
344,462	-22,53
344,674	-36,86
344,886	10,24
345,099	6,14
345,311	-16,38
345,523	-79,87
345,735	51,2
345,947	8,19
346,159	-83,97
346,371	-43,01
346,583	36,86
346,795	10,24
347,007	-10,24
347,219	63,49
347,431	-51,2
347,643	36,86
347,855	47,1
348,067	28,67
348,279	4,1
348,491	43,01
348,703	-61,44
348,915	38,91
349,127	-65,53
349,339	-6,14
349,551	-65,53
349,763	18,43
349,975	-20,48
350,187	34,82
350,399	10,24
350,61	-59,39
350,822	4,1
351,034	-34,82
351,246	6,14
351,458	-14,34
351,669	73,73
351,881	-20,48
352,093	43,01
352,305	-32,77
352,517	-12,29
352,728	4,1
352,94	73,73
353,152	-32,77
353,363	-26,62
353,575	32,77
353,787	10,24
353,999	4,1
354,21	2,05
354,422	45,06
354,633	16,38
354,845	28,67
355,057	-14,34
355,268	-32,77
355,48	-34,82
355,692	20,48
355,903	-32,77
356,115	-40,96
356,326	18,43
356,538	-30,72
356,749	6,14
356,961	-10,24
357,172	-24,58
357,384	22,53
357,595	63,49
357,807	14,34
358,018	0
358,23	-34,82
358,441	34,82
358,653	-18,43
358,864	-2,05
359,075	-20,48
359,287	20,48
359,498	75,77
359,709	20,48
359,921	-20,48
360,132	0
360,344	16,38
360,555	-4,1
360,766	47,1
360,977	28,67
361,189	-55,3
361,4	45,06
361,611	18,43
361,823	-63,49
362,034	36,86
362,245	-59,39
362,456	53,25
362,667	-26,62
362,879	4,1
363,09	6,14
363,301	-18,43
363,512	22,53
363,723	28,67
363,935	-16,38
364,146	-10,24
364,357	-20,48
364,568	38,91
364,779	-18,43
364,99	32,77
365,201	16,38
365,412	34,82
365,623	49,15
365,834	38,91
366,045	45,06
366,256	79,87
366,467	-14,34
366,678	-12,29
366,889	0
367,1	67,58
367,311	51,2
367,522	67,58
367,733	75,77
367,944	67,58
368,155	-45,06
368,366	22,53
368,577	34,82
368,788	-28,67
368,999	28,67
369,209	28,67
369,42	16,38
369,631	12,29
369,842	30,72
370,053	36,86
370,264	-10,24
370,474	104,45
370,685	-34,82
370,896	-6,14
371,107	34,82
371,317	34,82
371,528	-38,91
371,739	-10,24
371,95	36,86
372,16	59,39
372,371	30,72
372,582	45,06
372,792	55,3
373,003	-4,1
373,214	-8,19
373,424	-12,29
373,635	81,92
373,846	34,82
374,056	71,68
374,267	77,82
374,477	43,01
374,688	12,29
374,898	77,82
375,109	77,82
375,319	86,01
375,53	49,15
375,74	122,88
375,951	43,01
376,161	69,63
376,372	14,34
376,582	137,21
376,793	98,3
377,003	6,14
377,214	126,97
377,424	71,68
377,635	28,67
377,845	53,25
378,055	49,15
378,266	102,4
378,476	49,15
378,686	32,77
378,897	34,82
379,107	126,97
379,317	0
379,528	96,25
379,738	157,69
379,948	102,4
380,158	61,44
380,369	57,34
380,579	92,16
380,789	-51,2
380,999	-20,48
381,21	4,1
381,42	59,39
381,63	26,62
381,84	30,72
382,05	96,25
382,261	32,77
382,471	40,96
382,681	38,91
382,891	53,25
383,101	69,63
383,311	40,96
383,521	92,16
383,731	118,78
383,941	120,83
384,151	-10,24
384,361	55,3
384,571	30,72
384,781	131,07
384,991	53,25
385,201	178,17
385,411	145,41
385,621	8,19
385,831	67,58
386,041	69,63
386,251	149,5
386,461	88,06
386,671	24,58
386,881	108,54
387,091	159,74
387,301	202,75
387,511	258,04
387,72	79,87
387,93	114,69
388,14	223,23
388,35	192,51
388,56	151,55
388,769	249,85
388,979	215,04
389,189	243,71
389,399	264,19
389,609	176,13
389,818	251,9
390,028	235,52
390,238	217,08
390,447	153,6
390,657	145,41
390,867	126,97
391,076	55,3
391,286	26,62
391,496	102,4
391,705	159,74
391,915	43,01
392,125	145,41
392,334	47,1
392,544	135,17
392,753	124,93
392,963	200,7
393,172	178,17
393,382	153,6
393,591	292,86
393,801	231,42
394,01	202,75
394,22	176,13
394,429	237,56
394,639	192,51
394,848	106,49
395,058	141,31
395,267	184,32
395,477	249,85
395,686	202,75
395,895	268,28
396,105	247,8
396,314	432,12
396,524	382,97
396,733	534,52
396,942	610,29
397,152	788,47
397,361	636,92
397,57	845,81
397,78	796,66
397,989	974,83
398,198	1097,71
398,407	1218,54
398,617	1101,81
398,826	1382,38
399,035	1206,25
399,244	1325,04
399,453	1241,07
399,663	1449,96
399,872	1572,84
400,081	1763,3
400,29	1517,54
400,499	1562,6
400,708	1443,82
400,917	1746,92
401,127	1533,93
401,336	1701,86
401,545	1497,07
401,754	1791,97
401,963	1738,73
402,172	1656,81
402,381	1505,26
402,59	1920,99
402,799	1634,28
403,008	1818,6
403,217	1558,5
403,426	1814,5
403,635	1587,18
403,844	1660,9
404,053	1669,09
404,262	1646,57
404,471	1521,64
404,68	1728,49
404,888	1603,56
405,097	1693,67
405,306	1802,21
405,515	1843,17
405,724	1763,3
405,933	2101,22
406,142	1695,72
406,35	1871,84
406,559	2242,53
406,768	2332,64
406,977	2033,63
407,185	2389,98
407,394	2166,75
407,603	2199,52
407,812	2125,79
408,02	2117,6
408,229	2103,26
408,438	2195,42
408,646	2144,22
408,855	2070,5
409,064	2123,74
409,272	2408,41
409,481	2531,29
409,69	2641,88
409,898	2334,68
410,107	2777,05
410,315	2523,1
410,524	2924,5
410,733	2748,37
410,941	2979,79
411,15	2797,53
411,358	3022,8
411,567	2762,71
411,775	2928,6
411,984	2836,44
412,192	3248,08
412,401	2961,36
412,609	3117,01
412,818	3098,58
413,026	3084,24
413,234	2983,89
413,443	3192,78
413,651	2998,23
413,86	3221,45
414,068	3295,18
414,276	3354,57
414,485	3090,38
414,693	3250,13
414,901	3090,38
415,11	3573,71
415,318	3127,25
415,526	3454,92
415,734	3067,86
415,943	3323,85
416,151	3209,17
416,359	3278,8
416,567	3045,33
416,776	3233,74
416,984	3067,86
417,192	3475,4
417,4	3188,69
417,608	3180,5
417,817	3020,75
418,025	3190,74
418,233	3295,18
418,441	3278,8
418,649	3174,35
418,857	3827,65
419,065	3383,24
419,273	3330
419,481	3377,1
419,689	3891,14
419,897	3676,1
420,105	3753,93
420,313	3393,48
420,521	3567,56
420,729	3364,81
420,937	3506,12
421,145	3225,55
421,353	3538,89
421,561	3280,85
421,769	3559,37
421,977	3626,95
422,185	3637,19
422,393	3608,52
422,601	4003,78
422,809	3747,78
423,017	3829,7
423,224	3569,61
423,432	3827,65
423,64	3598,28
423,848	4054,98
424,056	3712,97
424,263	3979,2
424,471	3731,4
424,679	3856,33
424,887	3821,51
425,094	4050,88
425,302	3446,73
425,51	3958,72
425,718	3524,55
425,925	3784,65
426,133	3737,54
426,341	3870,66
426,548	3968,96
426,756	3975,11
426,964	3794,89
427,171	3952,58
427,379	3858,37
427,586	3786,69
427,794	3653,58
428,001	3696,58
428,209	3481,55
428,417	3147,73
428,624	3360,72
428,832	3123,15
429,039	2719,7
429,247	3041,23
429,454	3303,37
429,662	4007,87
429,869	3330
430,076	4040,64
430,284	3629
430,491	4204,48
430,699	4519,87
430,906	4511,68
431,114	4290,49
431,321	4548,54
431,528	4394,94
431,736	5062,58
431,943	5025,72
432,15	4747,19
432,358	4630,46
432,565	5035,96
432,772	4894,65
432,979	5306,29
433,187	4921,27
433,394	5103,54
433,601	5644,2
433,808	5789,61
434,016	5461,93
434,223	6037,41
434,43	6127,52
434,637	6008,74
434,844	6297,5
435,052	6657,95
435,259	6090,66
435,466	6438,81
435,673	5961,64
435,88	6516,64
436,087	6473,63
436,294	6436,77
436,501	5855,14
436,708	5789,61
436,915	5785,51
437,122	6156,19
437,329	5797,8
437,537	6408,09
437,743	6162,34
437,95	6223,78
438,157	6406,05
438,364	6821,78
438,571	6197,15
438,778	6535,07
438,985	6938,52
439,192	6829,98
439,399	6915,99
439,606	6653,85
439,813	6997,91
440,02	7550,86
440,227	7278,48
440,433	7303,06
440,64	7452,56
440,847	7364,5
441,054	7352,21
441,261	7896,97
441,467	7278,48
441,674	7630,73
441,881	7679,88
442,088	7905,16
442,294	7520,14
442,501	7890,82
442,708	7657,36
442,914	8146,82
443,121	8007,56
443,328	7909,26
443,534	8263,55
443,741	7901,06
443,948	7280,53
444,154	8120,2
444,361	7454,61
444,568	7597,96
444,774	7321,49
444,981	7690,12
445,187	7706,51
445,394	8173,44
445,6	7823,24
445,807	8957,82
446,013	8122,24
446,22	8466,3
446,426	8728,44
446,633	8740,73
446,839	8818,55
447,046	8269,7
447,252	8753,02
447,459	8937,34
447,665	8368
447,871	9107,32
448,078	9164,66
448,284	8767,35
448,491	9160,56
448,697	9498,48
448,903	9615,21
449,11	9727,85
449,316	9353,07
449,522	9602,93
449,728	9639,79
449,935	9645,93
450,141	9482,1
450,347	9965,42
450,553	8933,24
450,76	9283,44
450,966	9076,6
451,172	9285,49
451,378	9090,93
451,584	9310,07
451,791	8859,51
451,997	9156,47
452,203	9541,49
452,409	9441,14
452,615	9570,16
452,821	9445,23
453,027	8935,29
453,233	9846,63
453,44	9160,56
453,646	9910,12
453,852	9711,47
454,058	9969,51
454,264	9801,58
454,47	10305,38
454,676	9961,32
454,882	10782,56
455,088	9686,89
455,294	10291,04
455,5	10483,55
455,705	10737,5
455,911	10506,08
456,117	10254,18
456,323	10518,37
456,529	10149,73
456,735	10776,41
456,941	10637,15
457,147	10637,15
457,352	10579,81
457,558	10254,18
457,764	10827,61
457,97	10645,34
458,176	10870,62
458,381	11013,98
458,587	10790,75
458,793	10774,36
458,999	10837,85
459,204	11904,84
459,41	12177,22
459,616	11493,2
459,821	11724,62
460,027	12044,1
460,233	12494,66
460,438	11771,72
460,644	12312,39
460,85	11997
461,055	12351,3
461,261	12216,13
461,466	11962,19
461,672	11663,18
461,878	12896,06
462,083	12121,93
462,289	12068,68
462,494	12119,88
462,7	11818,83
462,905	11568,98
463,111	12779,32
463,316	12801,85
463,522	12822,33
463,727	12988,22
463,932	13375,28
464,138	13414,2
464,343	13664,05
464,549	13266,74
464,754	13961
464,959	14081,83
465,165	14169,9
