Data from sun_USB4F104151__2__13-24-02-488.txt Node

Date: Fri Mar 08 13:24:02 EST 2024
User: lauri
Spectrometer: USB4F10415
Trigger mode: 4
Integration Time (sec): 1,000000E-3
Scans to average: 1
Electric dark correction enabled: true
Nonlinearity correction enabled: false
Boxcar width: 0
XAxis mode: Wavelengths
Number of Pixels in Spectrum: 3648
>>>>>Begin Spectral Data<<<<<
178,204	4,61
178,424	4,61
178,644	4,61
178,864	-83,45
179,084	12,8
179,304	6,66
179,524	31,23
179,744	41,47
179,964	53,76
180,184	-50,69
180,404	45,57
180,624	-30,21
180,844	-1,54
181,064	-50,69
181,283	-38,4
181,503	4,61
181,723	-11,78
181,943	-34,3
182,163	37,38
182,383	-19,97
182,602	55,81
182,822	12,8
183,042	0,51
183,262	53,76
183,482	2,56
183,701	-17,92
183,921	18,94
184,141	-112,13
184,361	-11,78
184,58	-34,3
184,8	31,23
185,02	35,33
185,239	29,18
185,459	14,85
185,679	-73,21
185,898	-7,68
186,118	31,23
186,338	53,76
186,557	68,09
186,777	27,14
186,997	-5,63
187,216	-67,07
187,436	53,76
187,655	-19,97
187,875	47,62
188,095	37,38
188,314	35,33
188,534	-40,45
188,753	-9,73
188,973	27,14
189,192	-22,02
189,412	35,33
189,631	39,42
189,851	-36,35
190,07	23,04
190,29	74,24
190,509	64
190,729	27,14
190,948	20,99
191,168	10,75
191,387	-58,88
191,607	66,05
191,826	-26,11
192,045	39,42
192,265	53,76
192,484	23,04
192,704	18,94
192,923	20,99
193,142	-44,54
193,362	-26,11
193,581	51,71
193,8	39,42
194,02	-5,63
194,239	-19,97
194,458	6,66
194,678	-17,92
194,897	80,38
195,116	-9,73
195,335	23,04
195,555	72,19
195,774	-17,92
195,993	-17,92
196,212	-19,97
196,432	37,38
196,651	-9,73
196,87	-58,88
197,089	18,94
197,308	6,66
197,528	27,14
197,747	-28,16
197,966	31,23
198,185	-11,78
198,404	-1,54
198,623	-5,63
198,842	31,23
199,062	47,62
199,281	-62,98
199,5	-44,54
199,719	-19,97
199,938	43,52
200,157	-34,3
200,376	43,52
200,595	47,62
200,814	-58,88
201,033	72,19
201,252	-1,54
201,471	6,66
201,69	29,18
201,909	88,57
202,128	-9,73
202,347	51,71
202,566	80,38
202,785	25,09
203,004	55,81
203,223	104,96
203,442	14,85
203,661	39,42
203,879	-34,3
204,098	37,38
204,317	-42,5
204,536	-19,97
204,755	-11,78
204,974	-56,83
205,193	2,56
205,411	47,62
205,63	35,33
205,849	-1,54
206,068	31,23
206,287	102,91
206,505	49,66
206,724	113,15
206,943	96,77
207,162	10,75
207,381	12,8
207,599	43,52
207,818	16,9
208,037	53,76
208,255	12,8
208,474	-11,78
208,693	20,99
208,911	23,04
209,13	-34,3
209,349	84,48
209,567	64
209,786	-9,73
210,005	2,56
210,223	-38,4
210,442	45,57
210,661	37,38
210,879	-19,97
211,098	33,28
211,316	-44,54
211,535	29,18
211,753	55,81
211,972	96,77
212,191	33,28
212,409	14,85
212,628	72,19
212,846	59,9
213,065	31,23
213,283	39,42
213,502	41,47
213,72	76,29
213,938	-11,78
214,157	43,52
214,375	39,42
214,594	10,75
214,812	-28,16
215,031	51,71
215,249	29,18
215,467	10,75
215,686	2,56
215,904	27,14
216,122	4,61
216,341	20,99
216,559	31,23
216,778	47,62
216,996	6,66
217,214	2,56
217,432	80,38
217,651	55,81
217,869	37,38
218,087	29,18
218,306	-19,97
218,524	-13,82
218,742	68,09
218,96	27,14
219,179	47,62
219,397	23,04
219,615	14,85
219,833	14,85
220,051	4,61
220,27	43,52
220,488	2,56
220,706	43,52
220,924	29,18
221,142	-83,45
221,36	78,33
221,578	53,76
221,796	47,62
222,015	-3,58
222,233	-30,21
222,451	53,76
222,669	6,66
222,887	-9,73
223,105	61,95
223,323	2,56
223,541	-30,21
223,759	72,19
223,977	29,18
224,195	20,99
224,413	37,38
224,631	29,18
224,849	29,18
225,067	41,47
225,285	0,51
225,503	39,42
225,721	80,38
225,939	37,38
226,157	59,9
226,375	-50,69
226,592	53,76
226,81	10,75
227,028	53,76
227,246	-50,69
227,464	25,09
227,682	55,81
227,9	61,95
228,117	23,04
228,335	12,8
228,553	84,48
228,771	-1,54
228,989	-54,78
229,206	-3,58
229,424	-32,26
229,642	-28,16
229,86	162,3
230,077	12,8
230,295	-1,54
230,513	-13,82
230,731	-26,11
230,948	-9,73
231,166	-28,16
231,384	-26,11
231,601	33,28
231,819	-17,92
232,037	123,39
232,254	-26,11
232,472	12,8
232,689	31,23
232,907	-17,92
233,125	-3,58
233,342	-26,11
233,56	64
233,777	-42,5
233,995	33,28
234,213	-13,82
234,43	-26,11
234,648	8,7
234,865	64
235,083	6,66
235,3	6,66
235,518	-34,3
235,735	-11,78
235,953	43,52
236,17	-1,54
236,388	31,23
236,605	-46,59
236,822	-26,11
237,04	-13,82
237,257	6,66
237,475	4,61
237,692	12,8
237,909	-1,54
238,127	64
238,344	51,71
238,562	14,85
238,779	72,19
238,996	20,99
239,214	-9,73
239,431	10,75
239,648	12,8
239,865	64
240,083	70,14
240,3	2,56
240,517	80,38
240,735	41,47
240,952	-17,92
241,169	47,62
241,386	-11,78
241,603	23,04
241,821	88,57
242,038	53,76
242,255	4,61
242,472	8,7
242,689	23,04
242,907	74,24
243,124	-46,59
243,341	23,04
243,558	37,38
243,775	-19,97
243,992	-42,5
244,209	-22,02
244,426	-17,92
244,643	33,28
244,86	14,85
245,078	10,75
245,295	-42,5
245,512	20,99
245,729	27,14
245,946	129,53
246,163	-19,97
246,38	113,15
246,597	2,56
246,814	8,7
247,031	23,04
247,248	72,19
247,464	-22,02
247,681	35,33
247,898	47,62
248,115	-17,92
248,332	-42,5
248,549	20,99
248,766	98,81
248,983	25,09
249,2	-1,54
249,417	41,47
249,633	-26,11
249,85	-3,58
250,067	123,39
250,284	12,8
250,501	8,7
250,717	-3,58
250,934	43,52
251,151	23,04
251,368	12,8
251,585	51,71
251,801	-36,35
252,018	45,57
252,235	-15,87
252,451	84,48
252,668	51,71
252,885	66,05
253,102	-17,92
253,318	82,43
253,535	-9,73
253,752	20,99
253,968	12,8
254,185	88,57
254,401	14,85
254,618	47,62
254,835	23,04
255,051	47,62
255,268	16,9
255,484	39,42
255,701	23,04
255,917	88,57
256,134	23,04
256,351	59,9
256,567	14,85
256,784	64
257	-1,54
257,217	55,81
257,433	-17,92
257,65	72,19
257,866	31,23
258,082	33,28
258,299	59,9
258,515	76,29
258,732	23,04
258,948	-42,5
259,165	-40,45
259,381	31,23
259,597	-42,5
259,814	55,81
260,03	-28,16
260,246	14,85
260,463	-1,54
260,679	53,76
260,895	-50,69
261,112	-1,54
261,328	6,66
261,544	59,9
261,761	35,33
261,977	33,28
262,193	14,85
262,409	25,09
262,626	61,95
262,842	27,14
263,058	-5,63
263,274	-30,21
263,49	39,42
263,707	-5,63
263,923	51,71
264,139	-9,73
264,355	-50,69
264,571	59,9
264,787	39,42
265,004	6,66
265,22	16,9
265,436	-73,21
265,652	-26,11
265,868	-48,64
266,084	-26,11
266,3	-32,26
266,516	76,29
266,732	72,19
266,948	14,85
267,164	39,42
267,38	-34,3
267,596	35,33
267,812	20,99
268,028	72,19
268,244	39,42
268,46	12,8
268,676	-26,11
268,892	-26,11
269,108	-26,11
269,324	18,94
269,54	23,04
269,756	10,75
269,972	-1,54
270,188	-17,92
270,403	23,04
270,619	6,66
270,835	-26,11
271,051	78,33
271,267	-3,58
271,483	14,85
271,698	35,33
271,914	80,38
272,13	6,66
272,346	47,62
272,562	-5,63
272,777	39,42
272,993	27,14
273,209	47,62
273,425	-26,11
273,64	-9,73
273,856	23,04
274,072	-28,16
274,287	-11,78
274,503	41,47
274,719	14,85
274,934	8,7
275,15	6,66
275,366	-22,02
275,581	-11,78
275,797	39,42
276,012	-19,97
276,228	55,81
276,444	-9,73
276,659	20,99
276,875	23,04
277,09	-26,11
277,306	-9,73
277,521	29,18
277,737	-38,4
277,952	78,33
278,168	-26,11
278,383	45,57
278,599	12,8
278,814	39,42
279,03	31,23
279,245	80,38
279,461	37,38
279,676	2,56
279,892	-9,73
280,107	47,62
280,322	14,85
280,538	18,94
280,753	-9,73
280,969	102,91
281,184	53,76
281,399	-28,16
281,615	37,38
281,83	-24,06
282,045	-42,5
282,26	88,57
282,476	53,76
282,691	113,15
282,906	14,85
283,122	14,85
283,337	14,85
283,552	47,62
283,767	-40,45
283,983	70,14
284,198	-19,97
284,413	31,23
284,628	18,94
284,843	23,04
285,058	-28,16
285,274	35,33
285,489	39,42
285,704	-11,78
285,919	-34,3
286,134	47,62
286,349	-34,3
286,564	35,33
286,779	2,56
286,995	-26,11
287,21	39,42
287,425	31,23
287,64	-19,97
287,855	74,24
288,07	-19,97
288,285	-17,92
288,5	47,62
288,715	2,56
288,93	23,04
289,145	23,04
289,36	4,61
289,575	37,38
289,79	4,61
290,004	61,95
290,219	4,61
290,434	-9,73
290,649	14,85
290,864	39,42
291,079	35,33
291,294	0,51
291,509	37,38
291,724	53,76
291,938	43,52
292,153	53,76
292,368	27,14
292,583	6,66
292,798	27,14
293,012	12,8
293,227	20,99
293,442	-44,54
293,657	-26,11
293,871	39,42
294,086	-5,63
294,301	70,14
294,516	-38,4
294,73	16,9
294,945	31,23
295,16	10,75
295,374	72,19
295,589	88,57
295,804	-26,11
296,018	16,9
296,233	-9,73
296,447	-17,92
296,662	29,18
296,877	43,52
297,091	-44,54
297,306	14,85
297,52	2,56
297,735	-32,26
297,949	39,42
298,164	-1,54
298,378	27,14
298,593	94,72
298,807	-11,78
299,022	12,8
299,236	39,42
299,451	43,52
299,665	-11,78
299,88	6,66
300,094	-3,58
300,309	82,43
300,523	-34,3
300,737	2,56
300,952	45,57
301,166	-58,88
301,381	8,7
301,595	-60,93
301,809	6,66
302,024	-1,54
302,238	-11,78
302,452	25,09
302,667	43,52
302,881	102,91
303,095	47,62
303,309	123,39
303,524	14,85
303,738	8,7
303,952	-9,73
304,166	-44,54
304,381	-11,78
304,595	-13,82
304,809	-15,87
305,023	59,9
305,237	29,18
305,452	35,33
305,666	39,42
305,88	47,62
306,094	37,38
306,308	109,05
306,522	-11,78
306,736	-1,54
306,95	-19,97
307,164	4,61
307,379	-9,73
307,593	18,94
307,807	8,7
308,021	10,75
308,235	14,85
308,449	82,43
308,663	20,99
308,877	23,04
309,091	-11,78
309,305	59,9
309,519	55,81
309,733	-79,36
309,947	2,56
310,161	-36,35
310,374	27,14
310,588	-1,54
310,802	-42,5
311,016	27,14
311,23	57,86
311,444	23,04
311,658	59,9
311,872	66,05
312,085	-36,35
312,299	4,61
312,513	14,85
312,727	0,51
312,941	45,57
313,154	-13,82
313,368	51,71
313,582	64
313,796	39,42
314,009	64
314,223	39,42
314,437	-9,73
314,651	-91,65
314,864	23,04
315,078	45,57
315,292	29,18
315,505	64
315,719	6,66
315,933	76,29
316,146	37,38
316,36	14,85
316,573	47,62
316,787	37,38
317,001	47,62
317,214	104,96
317,428	20,99
317,641	-9,73
317,855	31,23
318,068	72,19
318,282	31,23
318,495	70,14
318,709	84,48
318,922	20,99
319,136	76,29
319,349	35,33
319,563	90,62
319,776	78,33
319,99	64
320,203	35,33
320,417	102,91
320,63	90,62
320,843	47,62
321,057	27,14
321,27	-60,93
321,483	39,42
321,697	137,73
321,91	61,95
322,124	74,24
322,337	29,18
322,55	31,23
322,763	59,9
322,977	25,09
323,19	70,14
323,403	72,19
323,617	47,62
323,83	115,2
324,043	104,96
324,256	109,05
324,469	100,86
324,683	37,38
324,896	109,05
325,109	178,69
325,322	166,4
325,535	195,07
325,748	195,07
325,962	219,64
326,175	215,55
326,388	174,59
326,601	252,41
326,814	223,74
327,027	240,12
327,24	145,92
327,453	176,64
327,666	274,94
327,879	293,37
328,092	346,62
328,305	244,22
328,518	299,52
328,731	309,76
328,944	227,84
329,157	326,14
329,37	367,1
329,583	369,15
329,796	334,33
330,009	332,28
330,222	307,71
330,435	305,66
330,648	293,37
330,861	299,52
331,073	350,71
331,286	315,9
331,499	320
331,712	348,67
331,925	326,14
332,138	305,66
332,35	328,19
332,563	414,2
332,776	334,33
332,989	295,42
333,202	309,76
333,414	326,14
333,627	449,02
333,84	367,1
334,053	315,9
334,265	338,43
334,478	328,19
334,691	387,58
334,903	389,63
335,116	401,91
335,329	334,33
335,541	424,44
335,754	276,99
335,966	326,14
336,179	215,55
336,392	342,52
336,604	231,93
336,817	397,82
337,029	375,29
337,242	444,92
337,454	383,48
337,667	461,3
337,88	440,83
338,092	518,65
338,305	582,14
338,517	477,69
338,729	563,7
338,942	625,14
339,154	512,5
339,367	592,37
339,579	635,38
339,792	635,38
340,004	641,53
340,217	711,16
340,429	676,34
340,641	694,77
340,854	637,43
341,066	657,91
341,278	637,43
341,491	774,64
341,703	686,58
341,915	702,97
342,128	676,34
342,34	778,74
342,552	733,68
342,764	686,58
342,977	563,7
343,189	694,77
343,401	596,47
343,613	629,24
343,826	649,72
344,038	631,29
344,25	678,39
344,462	719,35
344,674	694,77
344,886	788,98
345,099	762,36
345,311	743,92
345,523	737,78
345,735	817,65
345,947	823,8
346,159	858,61
346,371	864,75
346,583	776,69
346,795	821,75
347,007	817,65
347,219	784,88
347,431	940,53
347,643	928,24
347,855	850,42
348,067	874,99
348,279	997,87
348,491	1028,59
348,703	1022,45
348,915	1047,02
349,127	1118,7
349,339	1118,7
349,551	1276,4
349,763	1094,13
349,975	1362,41
350,187	1167,85
350,399	1372,65
350,61	1112,56
350,822	1317,36
351,034	1122,8
351,246	1077,74
351,458	1081,84
351,669	1358,32
351,881	1145,33
352,093	1364,46
352,305	1350,12
352,517	1440,23
352,728	1411,56
352,94	1520,1
353,152	1511,91
353,363	1661,41
353,575	1647,08
353,787	1796,58
353,999	1710,57
354,21	1858,02
354,422	1645,03
354,633	1858,02
354,845	1399,27
355,057	1546,73
355,268	1436,14
355,48	1438,19
355,692	1284,59
355,903	1260,01
356,115	1030,64
356,326	1108,46
356,538	1075,7
356,749	1006,06
356,961	911,86
357,172	846,32
357,384	922,1
357,595	973,3
357,807	905,71
358,018	1069,55
358,23	1128,94
358,441	1403,37
358,653	1505,77
358,864	1724,9
359,075	1677,8
359,287	1765,86
359,498	1710,57
359,709	1710,57
359,921	1624,55
360,132	1749,48
360,344	1640,93
360,555	1739,24
360,766	1651,17
360,977	1788,39
361,189	1808,87
361,4	1907,17
361,611	1868,26
361,823	2079,2
362,034	2013,67
362,245	2222,56
362,456	2208,22
362,667	2378,2
362,879	2353,63
363,09	2404,83
363,301	2480,6
363,512	2568,66
363,723	2357,72
363,935	2904,53
364,146	2636,25
364,357	2922,96
364,568	2841,04
364,779	3234,25
364,99	3201,49
365,201	3494,35
365,412	3381,71
365,623	3520,97
365,834	3494,35
366,045	3729,86
366,256	3520,97
366,467	3658,18
366,678	3543,5
366,889	3443,15
367,1	3371,47
367,311	3523,02
367,522	3250,64
367,733	3424,72
367,944	3324,37
368,155	3625,42
368,366	3611,08
368,577	3787,21
368,788	3779,01
368,999	3799,49
369,209	3617,22
369,42	3946,95
369,631	3815,88
369,842	3824,07
370,053	3647,94
370,264	3557,83
370,474	3520,97
370,685	3668,42
370,896	3488,2
371,107	3639,75
371,317	3336,65
371,528	3181,01
371,739	3047,89
371,95	3111,38
372,16	3054,03
372,371	2783,7
372,582	2816,47
372,792	2779,61
373,003	2513,37
373,214	2765,27
373,424	2550,23
373,635	2693,59
373,846	2789,85
374,056	2994,64
374,267	2812,37
374,477	2988,5
374,688	3283,41
374,898	3299,79
375,109	3463,63
375,319	3592,65
375,53	3819,97
375,74	4004,29
375,951	3865,03
376,161	4123,07
376,372	4389,31
376,582	4565,43
376,793	4614,59
377,003	4942,26
377,214	4977,08
377,424	5061,04
377,635	5052,85
377,845	4614,59
378,055	4592,06
378,266	4813,24
378,476	4311,49
378,686	4282,81
378,897	4010,43
379,107	4233,66
379,317	4028,87
379,528	4352,45
379,738	4309,44
379,948	4454,84
380,158	4280,77
380,369	4184,51
380,579	4067,78
380,789	3811,78
380,999	3555,79
381,21	3189,2
381,42	2855,38
381,63	2746,84
381,84	2542,04
382,05	2316,76
382,261	2025,95
382,471	2195,93
382,681	1946,08
382,891	2507,23
383,101	2585,05
383,311	2691,54
383,521	2839
383,731	3129,81
383,941	3158,48
384,151	3545,55
384,361	3625,42
384,571	3885,51
384,781	3776,97
384,991	4002,24
385,201	3643,85
385,411	4102,59
385,621	3774,92
385,831	3987,91
386,041	3934,66
386,251	4143,55
386,461	3848,65
386,671	3953,09
386,881	4012,48
387,091	3889,6
387,301	3867,08
387,511	4139,46
387,72	3930,56
387,93	4250,05
388,14	4241,86
388,35	4633,02
388,56	4780,47
388,769	4848,05
388,979	5175,73
389,189	5239,22
389,399	5437,87
389,609	5556,65
389,818	5591,47
390,028	5687,72
390,238	6003,11
390,447	6101,41
390,657	5740,97
390,867	5611,95
391,076	5253,55
391,286	5102
391,496	4321,73
391,705	4192,7
391,915	3545,55
392,125	3312,08
392,334	2763,22
392,544	2585,05
392,753	2394,59
392,963	2798,04
393,172	2886,1
393,382	3445,2
393,591	3652,04
393,801	4260,29
394,01	4415,93
394,22	5048,75
394,429	5054,9
394,639	5151,15
394,848	5071,28
395,058	4946,36
395,267	4420,03
395,477	4016,58
395,686	4012,48
395,895	3768,77
396,105	3570,12
396,314	3566,03
396,524	3709,38
396,733	4477,37
396,942	4880,82
397,152	5595,56
397,361	5896,61
397,57	6740,38
397,78	6822,3
397,989	7739,79
398,198	8311,17
398,407	8526,21
398,617	8137,09
398,826	8630,65
399,035	8399,23
399,244	8518,01
399,453	8501,63
399,663	9234,8
399,872	9054,58
400,081	9582,96
400,29	8976,76
400,499	9439,6
400,708	8956,28
400,917	9531,76
401,127	9302,39
401,336	9329,01
401,545	9447,79
401,754	9458,03
401,963	9640,3
402,172	9709,93
402,381	9062,77
402,59	9759,08
402,799	9384,3
403,008	9419,12
403,217	9113,97
403,426	9345,39
403,635	9132,4
403,844	9171,32
404,053	9214,32
404,262	9191,8
404,471	9025,91
404,68	9361,78
404,888	8739,19
405,097	9034,1
405,306	9150,84
405,515	9181,56
405,724	8765,82
405,933	9324,91
406,142	9156,98
406,35	9013,62
406,559	9697,64
406,768	9748,84
406,977	9632,11
407,185	10039,65
407,394	9632,11
407,603	10076,52
407,812	10013,03
408,02	10119,53
408,229	9920,87
408,438	9865,58
408,646	9632,11
408,855	9517,42
409,064	9476,46
409,272	9529,71
409,481	9937,26
409,69	9707,88
409,898	9386,35
410,107	10049,89
410,315	9621,87
410,524	10522,98
410,733	10273,12
410,941	10543,46
411,15	10498,4
411,358	10819,93
411,567	10869,08
411,775	10797,4
411,984	10672,48
412,192	10852,7
412,401	10510,69
412,609	11030,87
412,818	10670,43
413,026	11000,15
413,234	10678,62
413,443	10922,33
413,651	10869,08
413,86	10682,72
414,068	10922,33
414,276	10828,12
414,485	10506,59
414,693	10625,37
414,901	10813,79
415,11	11231,57
415,318	10789,21
415,526	11174,23
415,734	10703,2
415,943	11034,97
416,151	10637,66
416,359	10754,4
416,567	10211,68
416,776	10312,03
416,984	10449,25
417,192	10541,41
417,4	10328,42
417,608	10260,84
417,817	10221,92
418,025	10473,82
418,233	10299,75
418,441	10322,27
418,649	10303,84
418,857	10918,23
419,065	10322,27
419,273	9955,69
419,481	10260,84
419,689	11057,5
419,897	10987,86
420,105	11170,13
420,313	10776,92
420,521	10795,36
420,729	10686,81
420,937	10897,75
421,145	10512,74
421,353	10535,26
421,561	10428,77
421,769	10574,17
421,977	10770,78
422,185	10082,66
422,393	10449,25
422,601	10670,43
422,809	10201,44
423,017	10293,6
423,224	10320,23
423,432	10490,21
423,64	10469,73
423,848	10873,18
424,056	10312,03
424,263	10840,41
424,471	10275,17
424,679	10361,19
424,887	10588,51
425,094	10725,72
425,302	10264,93
425,51	10649,95
425,718	10148,2
425,925	10365,28
426,133	10080,61
426,341	10459,49
426,548	10629,47
426,756	10277,22
426,964	10006,89
427,171	10676,57
427,379	10514,78
427,586	10387,81
427,794	10078,57
428,001	10408,29
428,209	10174,82
428,417	9691,5
428,624	9685,36
428,832	9447,79
429,039	8405,38
429,247	8028,55
429,454	8305,03
429,662	8622,46
429,869	7750,03
430,076	8452,48
430,284	8130,95
430,491	8890,74
430,699	9517,42
430,906	9830,76
431,114	10137,96
431,321	10830,17
431,528	10725,72
431,736	11475,28
431,943	12020,04
432,15	11112,79
432,358	11192,66
432,565	11549,01
432,772	11262,29
432,979	11419,99
433,187	11104,6
433,394	11293,01
433,601	11602,25
433,808	11868,49
434,016	11086,17
434,223	12022,09
434,43	12441,92
434,637	12441,92
434,844	12802,36
435,052	13314,36
435,259	12851,52
435,466	12937,53
435,673	12613,95
435,88	13617,46
436,087	13580,59
436,294	13619,5
436,501	12441,92
436,708	12548,42
436,915	12691,77
437,122	12751,17
437,329	12015,94
437,537	12241,22
437,743	11974,99
437,95	11807,05
438,157	12106,06
438,364	12663,1
438,571	12699,97
438,778	12556,61
438,985	13373,75
439,192	12761,41
439,399	13293,88
439,606	12775,74
439,813	13480,24
440,02	14151,98
440,227	13660,46
440,433	13558,07
440,64	13875,5
440,847	13916,46
441,054	14008,62
441,261	14684,45
441,467	14074,15
441,674	14637,34
441,881	14606,63
442,088	14749,98
442,294	14352,68
442,501	14536,99
442,708	14215,46
442,914	14825,76
443,121	14997,79
443,328	14526,75
443,534	15218,97
443,741	14811,42
443,948	14164,26
444,154	15034,65
444,361	14465,32
444,568	14209,32
444,774	13476,15
444,981	13541,68
445,187	13875,5
445,394	14348,58
445,6	13715,76
445,807	15116,57
446,013	14209,32
446,22	14559,52
446,426	14702,88
446,633	15169,82
446,839	15585,55
447,046	14663,97
447,252	15415,57
447,459	15255,83
447,665	14643,49
447,871	15386,9
448,078	15434
448,284	14790,94
448,491	14940,44
448,697	15864,08
448,903	15636,75
449,11	15892,75
449,316	15513,88
449,522	15878,41
449,728	16322,82
449,935	16283,91
450,141	16236,81
450,347	16679,17
450,553	15630,61
450,76	15776,02
450,966	16249,1
451,172	15933,71
451,378	15786,26
451,584	15438,1
451,791	15427,86
451,997	15143,19
452,203	15051,03
452,409	15290,65
452,615	15311,13
452,821	14772,51
453,027	14625,06
453,233	15624,47
453,44	15020,31
453,646	15585,55
453,852	15841,55
454,058	15724,82
454,264	15520,02
454,47	16038,16
454,676	15874,32
454,882	16906,49
455,088	15601,94
455,294	16042,25
455,5	16349,45
455,705	16763,14
455,911	16544
456,117	16568,58
456,323	16468,23
456,529	16224,52
456,735	16863,49
456,941	16781,57
457,147	16883,97
457,352	16589,06
457,558	16431,37
457,764	16634,11
457,97	16718,08
458,176	16838,91
458,381	16826,62
458,587	16632,07
