Data from sun_USB4F104151__6__16-40-13-768.txt Node

Date: Thu Mar 07 16:40:13 EST 2024
User: lauri
Spectrometer: USB4F10415
Trigger mode: 4
Integration Time (sec): 2,000000E-3
Scans to average: 1
Electric dark correction enabled: true
Nonlinearity correction enabled: false
Boxcar width: 0
XAxis mode: Wavelengths
Number of Pixels in Spectrum: 3648
>>>>>Begin Spectral Data<<<<<
178,204	10,24
178,424	10,24
178,644	10,24
178,864	20,48
179,084	-26,62
179,304	-51,2
179,524	-4,1
179,744	81,92
179,964	-22,53
180,184	4,1
180,404	4,1
180,624	-32,77
180,844	6,14
181,064	-16,38
181,283	61,44
181,503	-47,1
181,723	16,38
181,943	43,01
182,163	-49,15
182,383	22,53
182,602	-34,82
182,822	40,96
183,042	-18,43
183,262	-65,54
183,482	-4,1
183,701	6,14
183,921	-2,05
184,141	26,62
184,361	-67,58
184,58	-38,91
184,8	-0
185,02	51,2
185,239	22,53
185,459	12,29
185,679	-104,45
185,898	-81,92
186,118	-16,38
186,338	-2,05
186,557	-8,19
186,777	-24,58
186,997	-4,1
187,216	43,01
187,436	-36,86
187,655	4,1
187,875	-77,82
188,095	20,48
188,314	26,62
188,534	47,1
188,753	-40,96
188,973	-47,1
189,192	-4,1
189,412	-63,49
189,631	-12,29
189,851	-26,62
190,07	-18,43
190,29	18,43
190,509	-6,14
190,729	-38,91
190,948	-47,1
191,168	32,77
191,387	-38,91
191,607	-45,06
191,826	-8,19
192,045	4,1
192,265	-55,3
192,484	-57,34
192,704	-69,63
192,923	55,3
193,142	-55,3
193,362	-10,24
193,581	24,58
193,8	-28,67
194,02	4,1
194,239	67,58
194,458	49,15
194,678	-63,49
194,897	-26,62
195,116	10,24
195,335	20,48
195,555	-65,54
195,774	14,34
195,993	14,34
196,212	34,82
196,432	53,25
196,651	12,29
196,87	40,96
197,089	43,01
197,308	-10,24
197,528	30,72
197,747	2,05
197,966	14,34
198,185	-28,67
198,404	-10,24
198,623	-30,72
198,842	-45,06
199,062	-22,53
199,281	6,14
199,5	-36,86
199,719	-4,1
199,938	-6,14
200,157	-0
200,376	-71,68
200,595	34,82
200,814	-36,86
201,033	10,24
201,252	-26,62
201,471	16,38
201,69	-65,54
201,909	-22,53
202,128	86,01
202,347	12,29
202,566	14,34
202,785	-18,43
203,004	6,14
203,223	43,01
203,442	36,86
203,661	-45,06
203,879	-36,86
204,098	-6,14
204,317	-38,91
204,536	-0
204,755	-40,96
204,974	-36,86
205,193	-4,1
205,411	14,34
205,63	-55,3
205,849	18,43
206,068	-6,14
206,287	59,39
206,505	-0
206,724	47,1
206,943	-8,19
207,162	-38,91
207,381	2,05
207,599	77,82
207,818	28,67
208,037	6,14
208,255	-18,43
208,474	-4,1
208,693	24,58
208,911	38,91
209,13	-10,24
209,349	36,86
209,567	10,24
209,786	-2,05
210,005	-59,39
210,223	-0
210,442	28,67
210,661	-43,01
210,879	-73,73
211,098	24,58
211,316	4,1
211,535	-14,34
211,753	73,73
211,972	10,24
212,191	2,05
212,409	-55,3
212,628	-38,91
212,846	-30,72
213,065	-43,01
213,283	-6,14
213,502	-81,92
213,72	-34,82
213,938	-22,53
214,157	30,72
214,375	-45,06
214,594	2,05
214,812	16,38
215,031	-47,1
215,249	-47,1
215,467	-34,82
215,686	-16,38
215,904	-38,91
216,122	-65,54
216,341	-2,05
216,559	-14,34
216,778	-30,72
216,996	-14,34
217,214	22,53
217,432	-75,77
217,651	-30,72
217,869	-45,06
218,087	-71,68
218,306	-36,86
218,524	14,34
218,742	-28,67
218,96	20,48
219,179	-36,86
219,397	-49,15
219,615	55,3
219,833	-86,01
220,051	8,19
220,27	12,29
220,488	-45,06
220,706	-8,19
220,924	-16,38
221,142	4,1
221,36	-14,34
221,578	77,82
221,796	-83,97
222,015	43,01
222,233	6,14
222,451	-30,72
222,669	6,14
222,887	-30,72
223,105	-28,67
223,323	-69,63
223,541	-40,96
223,759	51,2
223,977	6,14
224,195	-10,24
224,413	-81,92
224,631	-45,06
224,849	10,24
225,067	18,43
225,285	-65,54
225,503	-20,48
225,721	-14,34
225,939	-22,53
226,157	-55,3
226,375	-10,24
226,592	20,48
226,81	-18,43
227,028	-61,44
227,246	22,53
227,464	-59,39
227,682	4,1
227,9	14,34
228,117	30,72
228,335	4,1
228,553	-12,29
228,771	-63,49
228,989	-34,82
229,206	6,14
229,424	36,86
229,642	79,87
229,86	-16,38
230,077	-8,19
230,295	-4,1
230,513	-36,86
230,731	-47,1
230,948	-57,34
231,166	43,01
231,384	-4,1
231,601	-38,91
231,819	20,48
232,037	-4,1
232,254	-45,06
232,472	12,29
232,689	20,48
232,907	4,1
233,125	18,43
233,342	-28,67
233,56	20,48
233,777	34,82
233,995	-0
234,213	2,05
234,43	-6,14
234,648	36,86
234,865	-14,34
235,083	4,1
235,3	-38,91
235,518	28,67
235,735	-20,48
235,953	-0
236,17	12,29
236,388	-4,1
236,605	-4,1
236,822	32,77
237,04	8,19
237,257	45,06
237,475	2,05
237,692	26,62
237,909	61,44
238,127	-14,34
238,344	2,05
238,562	-0
238,779	36,86
238,996	12,29
239,214	-73,73
239,431	43,01
239,648	14,34
239,865	-16,38
240,083	2,05
240,3	-61,44
240,517	10,24
240,735	6,14
240,952	-57,34
241,169	43,01
241,386	-0
241,603	-67,58
241,821	-30,72
242,038	28,67
242,255	-28,67
242,472	6,14
242,689	-40,96
242,907	2,05
243,124	-8,19
243,341	4,1
243,558	-0
243,775	10,24
243,992	-77,82
244,209	-36,86
244,426	-16,38
244,643	-81,92
244,86	-38,91
245,078	-61,44
245,295	-61,44
245,512	32,77
245,729	-0
245,946	-22,53
246,163	-71,68
246,38	-20,48
246,597	30,72
246,814	8,19
247,031	-26,62
247,248	34,82
247,464	-36,86
247,681	-32,77
247,898	2,05
248,115	-40,96
248,332	-22,53
248,549	-36,86
248,766	2,05
248,983	-10,24
249,2	-77,82
249,417	-22,53
249,633	-6,14
249,85	-10,24
250,067	-83,97
250,284	20,48
250,501	63,49
250,717	-2,05
250,934	-14,34
251,151	-47,1
251,368	-20,48
251,585	8,19
251,801	14,34
252,018	-2,05
252,235	-38,91
252,451	-55,3
252,668	-18,43
252,885	-61,44
253,102	-22,53
253,318	-10,24
253,535	8,19
253,752	34,82
253,968	-4,1
254,185	18,43
254,401	-43,01
254,618	-0
254,835	-73,73
255,051	-20,48
255,268	4,1
255,484	43,01
255,701	-36,86
255,917	-10,24
256,134	18,43
256,351	16,38
256,567	-81,92
256,784	-2,05
257	38,91
257,217	-20,48
257,433	-30,72
257,65	-57,34
257,866	-34,82
258,082	32,77
258,299	-69,63
258,515	-2,05
258,732	16,38
258,948	51,2
259,165	-2,05
259,381	-71,68
259,597	30,72
259,814	-45,06
260,03	-61,44
260,246	14,34
260,463	-47,1
260,679	30,72
260,895	-32,77
261,112	-38,91
261,328	-6,14
261,544	6,14
261,761	8,19
261,977	-49,15
262,193	18,43
262,409	-4,1
262,626	-79,87
262,842	24,58
263,058	-20,48
263,274	53,25
263,49	10,24
263,707	-12,29
263,923	6,14
264,139	20,48
264,355	49,15
264,571	-4,1
264,787	-36,86
265,004	12,29
265,22	-65,54
265,436	-28,67
265,652	-92,16
265,868	10,24
266,084	-4,1
266,3	-53,25
266,516	-45,06
266,732	-28,67
266,948	-30,72
267,164	20,48
267,38	-8,19
267,596	4,1
267,812	-47,1
268,028	14,34
268,244	-63,49
268,46	-47,1
268,676	14,34
268,892	67,58
269,108	28,67
269,324	-20,48
269,54	-10,24
269,756	16,38
269,972	-24,58
270,188	-34,82
270,403	2,05
270,619	-6,14
270,835	-32,77
271,051	-67,58
271,267	4,1
271,483	40,96
271,698	-14,34
271,914	28,67
272,13	-8,19
272,346	18,43
272,562	10,24
272,777	-55,3
272,993	-30,72
273,209	-36,86
273,425	-10,24
273,64	6,14
273,856	-88,06
274,072	-32,77
274,287	-30,72
274,503	-18,43
274,719	14,34
274,934	67,58
275,15	-34,82
275,366	16,38
275,581	49,15
275,797	-22,53
276,012	18,43
276,228	43,01
276,444	57,34
276,659	-16,38
276,875	-61,44
277,09	-28,67
277,306	-38,91
277,521	10,24
277,737	-34,82
277,952	38,91
278,168	-65,54
278,383	-24,58
278,599	8,19
278,814	-57,34
279,03	6,14
279,245	-28,67
279,461	8,19
279,676	-63,49
279,892	-28,67
280,107	-26,62
280,322	-38,91
280,538	10,24
280,753	55,3
280,969	-61,44
281,184	-49,15
281,399	-18,43
281,615	-30,72
281,83	-18,43
282,045	-102,4
282,26	30,72
282,476	34,82
282,691	-0
282,906	-69,63
283,122	10,24
283,337	-53,25
283,552	26,62
283,767	-14,34
283,983	-18,43
284,198	-36,86
284,413	-20,48
284,628	-38,91
284,843	20,48
285,058	26,62
285,274	-45,06
285,489	-4,1
285,704	20,48
285,919	-65,54
286,134	45,06
286,349	-40,96
286,564	-6,14
286,779	-36,86
286,995	-24,58
287,21	-40,96
287,425	-8,19
287,64	-45,06
287,855	-26,62
288,07	16,38
288,285	-12,29
288,5	-79,87
288,715	-16,38
288,93	-6,14
289,145	-67,58
289,36	-0
289,575	4,1
289,79	98,3
290,004	45,06
290,219	-24,58
290,434	-53,25
290,649	-26,62
290,864	-114,69
291,079	22,53
291,294	-8,19
291,509	-43,01
291,724	-38,91
291,938	8,19
292,153	-49,15
292,368	-10,24
292,583	-43,01
292,798	-18,43
293,012	10,24
293,227	4,1
293,442	8,19
293,657	77,82
293,871	-16,38
294,086	-47,1
294,301	26,62
294,516	-4,1
294,73	26,62
294,945	28,67
295,16	-51,2
295,374	-18,43
295,589	6,14
295,804	4,1
296,018	-8,19
296,233	-55,3
296,447	-69,63
296,662	-28,67
296,877	94,21
297,091	-30,72
297,306	2,05
297,52	-14,34
297,735	-30,72
297,949	-79,87
298,164	6,14
298,378	-53,25
298,593	-47,1
298,807	6,14
299,022	-45,06
299,236	-2,05
299,451	-14,34
299,665	-38,91
299,88	40,96
300,094	-69,63
300,309	32,77
300,523	10,24
300,737	-94,21
300,952	-43,01
301,166	-10,24
301,381	43,01
301,595	88,06
301,809	34,82
302,024	2,05
302,238	10,24
302,452	-40,96
302,667	-65,54
302,881	4,1
303,095	34,82
303,309	10,24
303,524	-45,06
303,738	-47,1
303,952	-30,72
304,166	4,1
304,381	-18,43
304,595	14,34
304,809	-47,1
305,023	-34,82
305,237	-22,53
305,452	-71,68
305,666	-2,05
305,88	14,34
306,094	34,82
306,308	12,29
306,522	-96,25
306,736	-38,91
306,95	45,06
307,164	55,3
307,379	-45,06
307,593	-4,1
307,807	4,1
308,021	4,1
308,235	-32,77
308,449	-14,34
308,663	4,1
308,877	36,86
309,091	24,58
309,305	-32,77
309,519	8,19
309,733	18,43
309,947	14,34
310,161	94,21
310,374	-47,1
310,588	-28,67
310,802	-24,58
311,016	-20,48
311,23	24,58
311,444	16,38
311,658	-22,53
311,872	-94,21
312,085	-4,1
312,299	-0
312,513	-10,24
312,727	6,14
312,941	-49,15
313,154	-14,34
313,368	40,96
313,582	18,43
313,796	-22,53
314,009	-61,44
314,223	-14,34
314,437	16,38
314,651	-75,77
314,864	-2,05
315,078	-0
315,292	-26,62
315,505	8,19
315,719	12,29
315,933	-69,63
316,146	16,38
316,36	69,63
316,573	22,53
316,787	-28,67
317,001	47,1
317,214	-20,48
317,428	8,19
317,641	-4,1
317,855	-6,14
318,068	-57,34
318,282	-14,34
318,495	-43,01
318,709	-28,67
318,922	-47,1
319,136	6,14
319,349	-38,91
319,563	-6,14
319,776	-18,43
319,99	-12,29
320,203	-28,67
320,417	-38,91
320,63	4,1
320,843	24,58
321,057	-4,1
321,27	-16,38
321,483	-51,2
321,697	-28,67
321,91	-4,1
322,124	40,96
322,337	-32,77
322,55	32,77
322,763	8,19
322,977	8,19
323,19	-45,06
323,403	22,53
323,617	-12,29
323,83	-36,86
324,043	-32,77
324,256	-6,14
324,469	47,1
324,683	-75,77
324,896	-10,24
325,109	-59,39
325,322	10,24
325,535	43,01
325,748	49,15
325,962	51,2
326,175	-18,43
326,388	-40,96
326,601	24,58
326,814	-20,48
327,027	-71,68
327,24	-51,2
327,453	-59,39
327,666	-28,67
327,879	83,97
328,092	-38,91
328,305	-32,77
328,518	-18,43
328,731	-14,34
328,944	18,43
329,157	-57,34
329,37	24,58
329,583	-34,82
329,796	10,24
330,009	67,58
330,222	-53,25
330,435	8,19
330,648	-53,25
330,861	-16,38
331,073	-36,86
331,286	-57,34
331,499	-61,44
331,712	-28,67
331,925	-38,91
332,138	-69,63
332,35	-49,15
332,563	45,06
332,776	26,62
332,989	24,58
333,202	38,91
333,414	-26,62
333,627	-2,05
333,84	2,05
334,053	-32,77
334,265	-8,19
334,478	10,24
334,691	18,43
334,903	20,48
335,116	24,58
335,329	-26,62
335,541	-28,67
335,754	-0
335,966	6,14
336,179	-51,2
336,392	55,3
336,604	18,43
336,817	-20,48
337,029	-26,62
337,242	-0
337,454	-45,06
337,667	24,58
337,88	14,34
338,092	-22,53
338,305	-28,67
338,517	20,48
338,729	-20,48
338,942	-75,77
339,154	-10,24
339,367	-4,1
339,579	-38,91
339,792	20,48
340,004	18,43
340,217	-20,48
340,429	-30,72
340,641	12,29
340,854	-22,53
341,066	-47,1
341,278	2,05
341,491	-43,01
341,703	36,86
341,915	2,05
342,128	-6,14
342,34	8,19
342,552	10,24
342,764	18,43
342,977	-49,15
343,189	-53,25
343,401	-2,05
343,613	-40,96
343,826	-6,14
344,038	-28,67
344,25	-0
344,462	-8,19
344,674	-20,48
344,886	-30,72
345,099	12,29
345,311	-4,1
345,523	51,2
345,735	-40,96
345,947	-71,68
346,159	45,06
346,371	20,48
346,583	-40,96
346,795	18,43
347,007	-57,34
347,219	-8,19
347,431	75,77
347,643	28,67
347,855	24,58
348,067	-47,1
348,279	-45,06
348,491	-18,43
348,703	-16,38
348,915	-4,1
349,127	-24,58
349,339	45,06
349,551	-20,48
349,763	-30,72
349,975	-71,68
350,187	-18,43
350,399	-94,21
350,61	-75,77
350,822	-71,68
351,034	4,1
351,246	6,14
351,458	20,48
351,669	-6,14
351,881	-34,82
352,093	-36,86
352,305	45,06
352,517	-16,38
352,728	-49,15
352,94	-45,06
353,152	-12,29
353,363	-30,72
353,575	-10,24
353,787	-57,34
353,999	10,24
354,21	61,44
354,422	-22,53
354,633	16,38
354,845	-67,58
355,057	-6,14
355,268	53,25
355,48	30,72
355,692	-20,48
355,903	-10,24
356,115	73,73
356,326	-49,15
356,538	22,53
356,749	-14,34
356,961	16,38
357,172	-18,43
357,384	14,34
357,595	12,29
357,807	-4,1
358,018	6,14
358,23	-22,53
358,441	14,34
358,653	34,82
358,864	8,19
359,075	-12,29
359,287	-2,05
359,498	-18,43
359,709	4,1
359,921	18,43
360,132	73,73
360,344	16,38
360,555	10,24
360,766	-30,72
360,977	16,38
361,189	47,1
361,4	-24,58
361,611	30,72
361,823	8,19
362,034	2,05
362,245	-55,3
362,456	4,1
362,667	47,1
362,879	32,77
363,09	-16,38
363,301	20,48
363,512	-2,05
363,723	55,3
363,935	-16,38
364,146	10,24
364,357	32,77
364,568	22,53
364,779	10,24
364,99	63,49
365,201	43,01
365,412	-16,38
365,623	12,29
365,834	57,34
366,045	36,86
366,256	-75,77
366,467	12,29
366,678	55,3
366,889	83,97
367,1	73,73
367,311	34,82
367,522	-28,67
367,733	-38,91
367,944	69,63
368,155	-20,48
368,366	22,53
368,577	6,14
368,788	8,19
368,999	79,87
369,209	28,67
369,42	71,68
369,631	20,48
369,842	51,2
370,053	-0
370,264	-8,19
370,474	-49,15
370,685	32,77
370,896	40,96
371,107	18,43
371,317	32,77
371,528	26,62
371,739	-0
371,95	-8,19
372,16	-36,86
372,371	75,77
372,582	43,01
372,792	40,96
373,003	32,77
373,214	36,86
373,424	69,63
373,635	6,14
373,846	49,15
374,056	-32,77
374,267	57,34
374,477	12,29
374,688	32,77
374,898	165,89
375,109	-38,91
375,319	75,77
375,53	6,14
375,74	106,49
375,951	79,87
376,161	65,53
376,372	34,82
376,582	116,73
376,793	129,02
377,003	65,53
377,214	6,14
377,424	8,19
377,635	104,45
377,845	96,25
378,055	120,83
378,266	55,3
378,476	40,96
378,686	65,53
378,897	110,59
379,107	129,02
379,317	40,96
379,528	120,83
379,738	36,86
379,948	32,77
380,158	75,77
380,369	-55,3
380,579	57,34
380,789	38,91
380,999	73,73
381,21	88,06
381,42	79,87
381,63	12,29
381,84	-6,14
382,05	43,01
382,261	18,43
382,471	79,87
382,681	30,72
382,891	2,05
383,101	2,05
383,311	4,1
383,521	43,01
383,731	90,11
383,941	88,06
384,151	88,06
384,361	36,86
384,571	45,06
384,781	86,01
384,991	63,49
385,201	96,25
385,411	36,86
385,621	174,08
385,831	73,73
386,041	94,21
386,251	2,05
386,461	118,78
386,671	147,45
386,881	71,68
387,091	77,82
387,301	114,69
387,511	141,31
387,72	151,55
387,93	178,17
388,14	210,94
388,35	221,18
388,56	241,66
388,769	86,01
388,979	141,31
389,189	309,24
389,399	241,66
389,609	286,72
389,818	315,39
390,028	311,29
390,238	176,13
390,447	165,89
390,657	143,36
390,867	190,46
391,076	45,06
391,286	114,69
391,496	149,5
391,705	112,64
391,915	18,43
392,125	112,64
392,334	92,16
392,544	188,41
392,753	143,36
392,963	100,35
393,172	161,79
393,382	188,41
393,591	262,14
393,801	251,9
394,01	243,71
394,22	208,89
394,429	180,22
394,639	157,69
394,848	145,41
395,058	184,32
395,267	133,12
395,477	258,04
395,686	266,24
395,895	165,89
396,105	266,24
396,314	331,77
396,524	350,2
396,733	524,28
396,942	669,69
397,152	823,28
397,361	710,65
397,57	874,48
397,78	876,53
397,989	1003,5
398,198	1241,07
398,407	1239,02
398,617	1069,04
398,826	1271,79
399,035	1263,6
399,244	1277,93
399,453	1241,07
399,663	1480,68
399,872	1531,88
400,081	1765,35
400,29	1490,92
400,499	1490,92
400,708	1347,56
400,917	1687,53
401,127	1368,04
401,336	1738,73
401,545	1538,02
401,754	1669,09
401,963	1619,94
402,172	1859,56
402,381	1558,5
402,59	1796,07
402,799	1705,96
403,008	1699,81
403,217	1558,5
403,426	1927,14
403,635	1429,48
403,844	1757,16
404,053	1626,09
404,262	1798,12
404,471	1542,12
404,68	1910,75
404,888	1523,69
405,097	1720,29
405,306	1773,54
405,515	1972,19
405,724	1689,57
405,933	2058,21
406,142	1972,19
406,35	1990,63
406,559	2207,71
406,768	2232,29
406,977	2113,5
407,185	2324,44
407,394	2041,82
407,603	2361,31
407,812	2097,12
408,02	2246,62
408,229	1992,67
408,438	2222,05
408,646	2131,94
408,855	2263,01
409,064	2215,9
409,272	2482,14
409,481	2465,75
409,69	2637,78
409,898	2508,76
410,107	2717,65
410,315	2697,17
410,524	2875,35
410,733	2619,35
410,941	3035,09
411,15	2762,71
411,358	2815,96
411,567	2756,57
411,775	3033,04
411,984	2914,26
412,192	3260,37
412,401	2967,51
412,609	3022,8
412,818	3102,67
413,026	3209,17
413,234	3057,62
413,443	3211,21
413,651	3110,86
413,86	3121,1
414,068	3166,16
414,276	3311,57
414,485	3168,21
414,693	3284,94
414,901	3117,01
415,11	3456,97
415,318	3131,34
415,526	3416,01
415,734	3067,86
415,943	3235,79
416,151	3088,34
416,359	3282,89
416,567	3155,92
416,776	3295,18
416,984	3096,53
417,192	3403,72
417,4	2977,75
417,608	3184,59
417,817	3125,2
418,025	3207,12
418,233	3270,61
418,441	3229,65
418,649	3280,85
418,857	3600,33
419,065	3508,17
419,273	3438,54
419,481	3538,89
419,689	3786,69
419,897	3602,38
420,105	3788,74
420,313	3571,66
420,521	3532,75
420,729	3336,14
420,937	3590,09
421,145	3542,99
421,353	3835,85
421,561	3438,54
421,769	3749,83
421,977	3610,57
422,185	3557,32
422,393	3776,45
422,601	3823,56
422,809	3721,16
423,017	3764,17
423,224	3583,95
423,432	3829,7
423,64	3629
423,848	4011,97
424,056	3553,23
424,263	3729,35
424,471	3819,46
424,679	3829,7
424,887	4003,78
425,094	4120,51
425,302	3704,78
425,51	3932,1
425,718	3618,76
425,925	3762,12
426,133	3678,15
426,341	4304,83
426,548	4054,98
426,756	3956,68
426,964	3911,62
427,171	3948,48
427,379	3792,84
427,586	3710,92
427,794	3655,62
428,001	3588,04
428,209	3448,78
428,417	3291,09
428,624	3157,97
428,832	3237,84
429,039	2910,16
429,247	2893,78
429,454	3268,56
429,662	3907,52
429,869	3270,61
430,076	4001,73
430,284	3641,29
430,491	4210,62
430,699	4362,17
430,906	4618,17
431,114	4364,22
431,321	4755,38
431,528	4485,05
431,736	5230,51
431,943	5121,97
432,15	4865,97
432,358	4585,4
432,565	5089,2
432,772	4861,88
432,979	5439,4
433,187	5107,63
433,394	5232,56
433,601	5310,38
433,808	5752,74
434,016	5373,87
434,223	6109,09
434,43	6414,24
434,637	6031,27
434,844	6365,09
435,052	6520,73
435,259	6236,06
435,466	6172,58
435,673	5969,83
435,88	6541,21
436,087	6363,04
436,294	6504,35
436,501	5824,42
436,708	5875,62
436,915	5783,46
437,122	6154,15
437,329	5621,67
437,537	6231,97
437,743	6066,08
437,95	6311,84
438,157	6387,61
438,364	6832,02
438,571	6338,46
438,778	6596,51
438,985	7071,64
439,192	6807,45
439,399	6932,37
439,606	6803,35
439,813	7053,2
440,02	7757,71
440,227	7335,82
440,433	7380,88
440,64	7587,72
440,847	7653,26
441,054	7626,64
441,261	7802,76
441,467	7409,55
441,674	7624,59
441,881	7530,38
442,088	7819,14
442,294	7804,81
442,501	7911,3
442,708	7704,46
442,914	8155,01
443,121	8372,1
443,328	8013,7
443,534	8257,41
443,741	8093,57
443,948	7493,52
444,154	8044,42
444,361	7669,64
444,568	7890,82
444,774	7346,06
444,981	7608,2
445,187	7491,47
445,394	8226,69
445,6	8003,46
445,807	9095,03
446,013	8261,51
446,22	8511,36
446,426	8466,3
446,633	8746,87
446,839	8863,61
447,046	8492,93
447,252	8816,51
447,459	8824,7
447,665	8517,5
447,871	9072,5
448,078	9146,23
448,284	9000,82
448,491	9060,21
448,697	9545,58
448,903	9668,46
449,11	9842,54
449,316	9293,68
449,522	9607,02
449,728	9867,11
449,935	9834,35
450,141	9500,53
450,347	10110,82
450,553	9103,22
450,76	9217,91
450,966	9434,99
451,172	9224,05
451,378	9289,59
451,584	9494,38
451,791	9244,53
451,997	9400,18
452,203	9377,65
452,409	9600,88
452,615	9475,95
452,821	9234,29
453,027	9011,06
453,233	9742,19
453,44	9308,02
453,646	9711,47
453,852	9645,93
454,058	10106,73
454,264	9822,06
454,47	10284,9
454,676	10090,34
454,882	11093,85
455,088	9901,93
455,294	10413,92
455,5	10508,13
455,705	10901,34
455,911	10389,35
456,117	10596,19
456,323	10491,74
456,529	10231,65
456,735	10544,99
456,941	10637,15
457,147	10829,66
457,352	10782,56
457,558	10360,67
457,764	10938,2
457,97	10688,35
458,176	11118,42
458,381	11065,18
458,587	10719,07
458,793	11034,46
458,999	10811,23
459,204	11966,28
459,41	12465,99
459,616	11429,71
459,821	12070,73
460,027	12117,83
460,233	12513,09
460,438	12066,63
460,644	12468,03
460,85	12136,26
461,055	12236,61
461,261	12566,34
461,466	11652,94
461,672	11949,9
461,878	13100,86
462,083	12390,21
462,289	12261,19
462,494	12117,83
462,7	12087,11
462,905	11556,69
463,111	12709,69
463,316	12631,87
463,522	12762,94
463,727	13133,62
463,932	13254,45
464,138	13520,69
464,343	13717,29
464,549	13225,78
464,754	14264,1
464,959	14180,14
465,165	14145,32
